# file: i.LSST.pb
# comment: LSST Throughputs files created from syseng_throughputs repo
# comment: Version 1.1
# comment: sha1 acd2b1389ef7356e2125ef6f9dc40a5ffe2af05b
# comment: Aerosols added to atmosphere
# comment: Wavelen_cutoff_BLUE 675.90
# comment: Wavelen_cutoff_RED 833.00
# comment: Wavelength(nm)  Throughput(0-1)
# comment: xref and bandwidth computed from the passband itself
# xtype: lam
# description: full system QE
# bandwidth: 54.62 nm
# instrument: LSST
# ytype: qe
# xref: 754.6
# filter: i
# url: https://github.com/lsst/throughputs/tree/master/baseline
# xunit: nm
 675.500000    0.000000
 675.600000    0.000000
 675.700000    0.000000
 675.800000    0.000000
 675.900000    0.000000
 676.000000    0.000000
 676.100000    0.000897
 676.200000    0.001795
 676.300000    0.002693
 676.400000    0.003590
 676.500000    0.004464
 676.600000    0.005337
 676.700000    0.006233
 676.800000    0.007129
 676.900000    0.008025
 677.000000    0.008920
 677.100000    0.009816
 677.200000    0.010712
 677.300000    0.011585
 677.400000    0.012457
 677.500000    0.013353
 677.600000    0.014252
 677.700000    0.015151
 677.800000    0.016050
 677.900000    0.016950
 678.000000    0.017850
 678.100000    0.018722
 678.200000    0.019595
 678.300000    0.020491
 678.400000    0.021387
 678.500000    0.022283
 678.600000    0.023179
 678.700000    0.024075
 678.800000    0.024971
 678.900000    0.025843
 679.000000    0.026715
 679.100000    0.027607
 679.200000    0.028498
 679.300000    0.029390
 679.400000    0.030281
 679.500000    0.031171
 679.600000    0.032061
 679.700000    0.032928
 679.800000    0.033794
 679.900000    0.034683
 680.000000    0.035572
 680.100000    0.036470
 680.200000    0.037369
 680.300000    0.038267
 680.400000    0.039166
 680.500000    0.040041
 680.600000    0.040908
 680.700000    0.041798
 680.800000    0.042688
 680.900000    0.043578
 681.000000    0.044467
 681.100000    0.046248
 681.200000    0.048028
 681.300000    0.049784
 681.400000    0.051539
 681.500000    0.053317
 681.600000    0.055095
 681.700000    0.056848
 681.800000    0.058600
 681.900000    0.060375
 682.000000    0.062150
 682.100000    0.063905
 682.200000    0.065660
 682.300000    0.067437
 682.400000    0.069214
 682.500000    0.070968
 682.600000    0.072736
 682.700000    0.074528
 682.800000    0.076320
 682.900000    0.078089
 683.000000    0.079858
 683.100000    0.081633
 683.200000    0.083408
 683.300000    0.085159
 683.400000    0.086910
 683.500000    0.088683
 683.600000    0.090456
 683.700000    0.092205
 683.800000    0.093954
 683.900000    0.095726
 684.000000    0.097497
 684.100000    0.099236
 684.200000    0.100973
 684.300000    0.102734
 684.400000    0.104493
 684.500000    0.106228
 684.600000    0.107962
 684.700000    0.109718
 684.800000    0.111473
 684.900000    0.113204
 685.000000    0.114934
 685.100000    0.116699
 685.200000    0.118463
 685.300000    0.120203
 685.400000    0.121942
 685.500000    0.123704
 685.600000    0.125334
 685.700000    0.126936
 685.800000    0.128533
 685.900000    0.130150
 686.000000    0.131762
 686.100000    0.132222
 686.200000    0.132647
 686.300000    0.133016
 686.400000    0.133351
 686.500000    0.133674
 686.600000    0.131922
 686.700000    0.130065
 686.800000    0.128124
 686.900000    0.126120
 687.000000    0.124031
 687.100000    0.123748
 687.200000    0.123425
 687.300000    0.123082
 687.400000    0.122698
 687.500000    0.122256
 687.600000    0.125681
 687.700000    0.129169
 687.800000    0.132702
 687.900000    0.136262
 688.000000    0.139867
 688.100000    0.143149
 688.200000    0.146469
 688.300000    0.149806
 688.400000    0.153180
 688.500000    0.156612
 688.600000    0.157653
 688.700000    0.158663
 688.800000    0.159662
 688.900000    0.160670
 689.000000    0.161669
 689.100000    0.163180
 689.200000    0.164691
 689.300000    0.166223
 689.400000    0.167754
 689.500000    0.169265
 689.600000    0.171556
 689.700000    0.173881
 689.800000    0.176220
 689.900000    0.178552
 690.000000    0.180899
 690.100000    0.183142
 690.200000    0.185396
 690.300000    0.187642
 690.400000    0.189899
 690.500000    0.192189
 690.600000    0.194580
 690.700000    0.196963
 690.800000    0.199359
 690.900000    0.201789
 691.000000    0.204233
 691.100000    0.206468
 691.200000    0.208712
 691.300000    0.210944
 691.400000    0.213185
 691.500000    0.215457
 691.600000    0.217689
 691.700000    0.219908
 691.800000    0.222136
 691.900000    0.224394
 692.000000    0.226661
 692.100000    0.228840
 692.200000    0.231027
 692.300000    0.233243
 692.400000    0.235466
 692.500000    0.237675
 692.600000    0.239787
 692.700000    0.241927
 692.800000    0.244073
 692.900000    0.246203
 693.000000    0.248338
 693.100000    0.250216
 693.200000    0.252097
 693.300000    0.253957
 693.400000    0.255819
 693.500000    0.257706
 693.600000    0.259428
 693.700000    0.261128
 693.800000    0.262828
 693.900000    0.264550
 694.000000    0.266272
 694.100000    0.268041
 694.200000    0.269810
 694.300000    0.271603
 694.400000    0.273397
 694.500000    0.275169
 694.600000    0.277119
 694.700000    0.279095
 694.800000    0.281075
 694.900000    0.283034
 695.000000    0.284996
 695.100000    0.286843
 695.200000    0.288690
 695.300000    0.290516
 695.400000    0.292344
 695.500000    0.294195
 695.600000    0.295922
 695.700000    0.297626
 695.800000    0.299330
 695.900000    0.301056
 696.000000    0.302782
 696.100000    0.304874
 696.200000    0.306970
 696.300000    0.309046
 696.400000    0.311127
 696.500000    0.313234
 696.600000    0.315411
 696.700000    0.317571
 696.800000    0.319734
 696.900000    0.321926
 697.000000    0.324122
 697.100000    0.325918
 697.200000    0.327715
 697.300000    0.329535
 697.400000    0.331356
 697.500000    0.333155
 697.600000    0.334814
 697.700000    0.336495
 697.800000    0.338175
 697.900000    0.339831
 698.000000    0.341487
 698.100000    0.343034
 698.200000    0.344580
 698.300000    0.346100
 698.400000    0.347618
 698.500000    0.349156
 698.600000    0.350545
 698.700000    0.351908
 698.800000    0.353266
 698.900000    0.354644
 699.000000    0.356018
 699.100000    0.357719
 699.200000    0.359420
 699.300000    0.361144
 699.400000    0.362867
 699.500000    0.364567
 699.600000    0.366422
 699.700000    0.368301
 699.800000    0.370181
 699.900000    0.372039
 700.000000    0.373899
 700.100000    0.375678
 700.200000    0.377458
 700.300000    0.379214
 700.400000    0.380971
 700.500000    0.382751
 700.600000    0.384532
 700.700000    0.386289
 700.800000    0.388047
 700.900000    0.389828
 701.000000    0.391610
 701.100000    0.393337
 701.200000    0.395063
 701.300000    0.396766
 701.400000    0.398469
 701.500000    0.400194
 701.600000    0.402005
 701.700000    0.403585
 701.800000    0.405166
 701.900000    0.406078
 702.000000    0.406991
 702.100000    0.407859
 702.200000    0.408726
 702.300000    0.409593
 702.400000    0.410461
 702.500000    0.411328
 702.600000    0.412369
 702.700000    0.413388
 702.800000    0.414407
 702.900000    0.415450
 703.000000    0.416494
 703.100000    0.417761
 703.200000    0.419030
 703.300000    0.420300
 703.400000    0.421572
 703.500000    0.422823
 703.600000    0.423720
 703.700000    0.424641
 703.800000    0.425562
 703.900000    0.426483
 704.000000    0.427404
 704.100000    0.428257
 704.200000    0.429109
 704.300000    0.429961
 704.400000    0.430812
 704.500000    0.431641
 704.600000    0.432469
 704.700000    0.433321
 704.800000    0.434172
 704.900000    0.435023
 705.000000    0.435874
 705.100000    0.436790
 705.200000    0.437707
 705.300000    0.437950
 705.400000    0.438193
 705.500000    0.438227
 705.600000    0.438354
 705.700000    0.438480
 705.800000    0.438606
 705.900000    0.438732
 706.000000    0.438858
 706.100000    0.438926
 706.200000    0.438993
 706.300000    0.439060
 706.400000    0.439127
 706.500000    0.439194
 706.600000    0.439261
 706.700000    0.439329
 706.800000    0.439396
 706.900000    0.439463
 707.000000    0.439530
 707.100000    0.439553
 707.200000    0.439577
 707.300000    0.439600
 707.400000    0.439624
 707.500000    0.439647
 707.600000    0.439670
 707.700000    0.439694
 707.800000    0.439717
 707.900000    0.439741
 708.000000    0.439764
 708.100000    0.439844
 708.200000    0.439924
 708.300000    0.440004
 708.400000    0.440084
 708.500000    0.440164
 708.600000    0.440244
 708.700000    0.440324
 708.800000    0.440403
 708.900000    0.440483
 709.000000    0.440563
 709.100000    0.440604
 709.200000    0.440645
 709.300000    0.440686
 709.400000    0.440727
 709.500000    0.440768
 709.600000    0.440809
 709.700000    0.440850
 709.800000    0.440891
 709.900000    0.440932
 710.000000    0.440972
 710.100000    0.440999
 710.200000    0.441026
 710.300000    0.441053
 710.400000    0.441080
 710.500000    0.441106
 710.600000    0.441133
 710.700000    0.441160
 710.800000    0.441187
 710.900000    0.441213
 711.000000    0.441240
 711.100000    0.441345
 711.200000    0.441449
 711.300000    0.441553
 711.400000    0.441658
 711.500000    0.441762
 711.600000    0.441867
 711.700000    0.441971
 711.800000    0.442076
 711.900000    0.442180
 712.000000    0.442284
 712.100000    0.442195
 712.200000    0.442106
 712.300000    0.442016
 712.400000    0.441927
 712.500000    0.441837
 712.600000    0.441840
 712.700000    0.441843
 712.800000    0.441845
 712.900000    0.441848
 713.000000    0.441850
 713.100000    0.441845
 713.200000    0.441841
 713.300000    0.441836
 713.400000    0.441831
 713.500000    0.441826
 713.600000    0.441822
 713.700000    0.441818
 713.800000    0.441815
 713.900000    0.441811
 714.000000    0.441807
 714.100000    0.441751
 714.200000    0.441695
 714.300000    0.441639
 714.400000    0.441581
 714.500000    0.441523
 714.600000    0.441464
 714.700000    0.441405
 714.800000    0.441344
 714.900000    0.441282
 715.000000    0.441220
 715.100000    0.441156
 715.200000    0.441091
 715.300000    0.441026
 715.400000    0.440959
 715.500000    0.440892
 715.600000    0.440732
 715.700000    0.440570
 715.800000    0.440409
 715.900000    0.440247
 716.000000    0.440084
 716.100000    0.439229
 716.200000    0.438374
 716.300000    0.437519
 716.400000    0.436664
 716.500000    0.435809
 716.600000    0.433943
 716.700000    0.432078
 716.800000    0.430212
 716.900000    0.428346
 717.000000    0.426481
 717.100000    0.424768
 717.200000    0.423055
 717.300000    0.421341
 717.400000    0.419627
 717.500000    0.417913
 717.600000    0.417211
 717.700000    0.416509
 717.800000    0.415807
 717.900000    0.415104
 718.000000    0.414402
 718.100000    0.413077
 718.200000    0.411752
 718.300000    0.410427
 718.400000    0.409103
 718.500000    0.407779
 718.600000    0.406915
 718.700000    0.406052
 718.800000    0.405189
 718.900000    0.404326
 719.000000    0.403463
 719.100000    0.403566
 719.200000    0.403669
 719.300000    0.403771
 719.400000    0.403874
 719.500000    0.403976
 719.600000    0.404262
 719.700000    0.404548
 719.800000    0.404833
 719.900000    0.405118
 720.000000    0.405403
 720.100000    0.406352
 720.200000    0.407300
 720.300000    0.408249
 720.400000    0.409198
 720.500000    0.410147
 720.600000    0.412477
 720.700000    0.414807
 720.800000    0.417138
 720.900000    0.419469
 721.000000    0.421801
 721.100000    0.423998
 721.200000    0.426194
 721.300000    0.428391
 721.400000    0.430588
 721.500000    0.432785
 721.600000    0.433510
 721.700000    0.434235
 721.800000    0.434960
 721.900000    0.435685
 722.000000    0.436410
 722.100000    0.436254
 722.200000    0.436097
 722.300000    0.435940
 722.400000    0.435783
 722.500000    0.435626
 722.600000    0.434178
 722.700000    0.432730
 722.800000    0.431281
 722.900000    0.429832
 723.000000    0.428382
 723.100000    0.426122
 723.200000    0.423862
 723.300000    0.421603
 723.400000    0.419344
 723.500000    0.417086
 723.600000    0.416760
 723.700000    0.416435
 723.800000    0.416110
 723.900000    0.415784
 724.000000    0.415459
 724.100000    0.415670
 724.200000    0.415881
 724.300000    0.416094
 724.400000    0.416307
 724.500000    0.416521
 724.600000    0.416920
 724.700000    0.417321
 724.800000    0.417723
 724.900000    0.418126
 725.000000    0.418530
 725.100000    0.418889
 725.200000    0.419249
 725.300000    0.419610
 725.400000    0.419972
 725.500000    0.420334
 725.600000    0.421065
 725.700000    0.421797
 725.800000    0.422530
 725.900000    0.423263
 726.000000    0.423997
 726.100000    0.424045
 726.200000    0.424094
 726.300000    0.424143
 726.400000    0.424191
 726.500000    0.424240
 726.600000    0.424195
 726.700000    0.424151
 726.800000    0.424106
 726.900000    0.424062
 727.000000    0.424017
 727.100000    0.423229
 727.200000    0.422440
 727.300000    0.421651
 727.400000    0.420862
 727.500000    0.420073
 727.600000    0.420021
 727.700000    0.419970
 727.800000    0.419918
 727.900000    0.419867
 728.000000    0.419815
 728.100000    0.421282
 728.200000    0.422749
 728.300000    0.424217
 728.400000    0.425684
 728.500000    0.427150
 728.600000    0.426956
 728.700000    0.426762
 728.800000    0.426567
 728.900000    0.426372
 729.000000    0.426178
 729.100000    0.426520
 729.200000    0.426862
 729.300000    0.427206
 729.400000    0.427549
 729.500000    0.427894
 729.600000    0.428609
 729.700000    0.429325
 729.800000    0.430041
 729.900000    0.430759
 730.000000    0.431478
 730.100000    0.431168
 730.200000    0.430858
 730.300000    0.430550
 730.400000    0.430243
 730.500000    0.429937
 730.600000    0.429909
 730.700000    0.429882
 730.800000    0.429857
 730.900000    0.429832
 731.000000    0.429808
 731.100000    0.430146
 731.200000    0.430485
 731.300000    0.430823
 731.400000    0.431162
 731.500000    0.431501
 731.600000    0.432209
 731.700000    0.432917
 731.800000    0.433625
 731.900000    0.434333
 732.000000    0.435041
 732.100000    0.436073
 732.200000    0.437105
 732.300000    0.438137
 732.400000    0.439168
 732.500000    0.440199
 732.600000    0.440674
 732.700000    0.441149
 732.800000    0.441624
 732.900000    0.442098
 733.000000    0.442573
 733.100000    0.442582
 733.200000    0.442591
 733.300000    0.442600
 733.400000    0.442610
 733.500000    0.442620
 733.600000    0.442908
 733.700000    0.443198
 733.800000    0.443488
 733.900000    0.443778
 734.000000    0.444068
 734.100000    0.444219
 734.200000    0.444369
 734.300000    0.444519
 734.400000    0.444669
 734.500000    0.444817
 734.600000    0.444780
 734.700000    0.444742
 734.800000    0.444703
 734.900000    0.444663
 735.000000    0.444621
 735.100000    0.444714
 735.200000    0.444805
 735.300000    0.444895
 735.400000    0.444983
 735.500000    0.445070
 735.600000    0.444971
 735.700000    0.444871
 735.800000    0.444770
 735.900000    0.444668
 736.000000    0.444565
 736.100000    0.444515
 736.200000    0.444464
 736.300000    0.444413
 736.400000    0.444362
 736.500000    0.444312
 736.600000    0.444447
 736.700000    0.444583
 736.800000    0.444719
 736.900000    0.444855
 737.000000    0.444990
 737.100000    0.445266
 737.200000    0.445541
 737.300000    0.445816
 737.400000    0.446092
 737.500000    0.446367
 737.600000    0.446549
 737.700000    0.446732
 737.800000    0.446915
 737.900000    0.447097
 738.000000    0.447280
 738.100000    0.447282
 738.200000    0.447284
 738.300000    0.447286
 738.400000    0.447289
 738.500000    0.447291
 738.600000    0.447386
 738.700000    0.447480
 738.800000    0.447575
 738.900000    0.447670
 739.000000    0.447765
 739.100000    0.447805
 739.200000    0.447845
 739.300000    0.447885
 739.400000    0.447924
 739.500000    0.447964
 739.600000    0.448097
 739.700000    0.448229
 739.800000    0.448362
 739.900000    0.448495
 740.000000    0.448627
 740.100000    0.448723
 740.200000    0.448818
 740.300000    0.448914
 740.400000    0.449009
 740.500000    0.449104
 740.600000    0.449200
 740.700000    0.449295
 740.800000    0.449391
 740.900000    0.449486
 741.000000    0.449581
 741.100000    0.449574
 741.200000    0.449566
 741.300000    0.449558
 741.400000    0.449550
 741.500000    0.449543
 741.600000    0.449628
 741.700000    0.449713
 741.800000    0.449798
 741.900000    0.449883
 742.000000    0.449968
 742.100000    0.449945
 742.200000    0.449922
 742.300000    0.449900
 742.400000    0.449877
 742.500000    0.449854
 742.600000    0.449831
 742.700000    0.449808
 742.800000    0.449785
 742.900000    0.449763
 743.000000    0.449740
 743.100000    0.449883
 743.200000    0.450025
 743.300000    0.450168
 743.400000    0.450311
 743.500000    0.450454
 743.600000    0.450505
 743.700000    0.450555
 743.800000    0.450605
 743.900000    0.450655
 744.000000    0.450705
 744.100000    0.450701
 744.200000    0.450696
 744.300000    0.450691
 744.400000    0.450687
 744.500000    0.450682
 744.600000    0.450677
 744.700000    0.450673
 744.800000    0.450668
 744.900000    0.450663
 745.000000    0.450659
 745.100000    0.450653
 745.200000    0.450646
 745.300000    0.450640
 745.400000    0.450634
 745.500000    0.450628
 745.600000    0.450622
 745.700000    0.450616
 745.800000    0.450610
 745.900000    0.450604
 746.000000    0.450598
 746.100000    0.450577
 746.200000    0.450556
 746.300000    0.450535
 746.400000    0.450514
 746.500000    0.450493
 746.600000    0.450472
 746.700000    0.450451
 746.800000    0.450430
 746.900000    0.450409
 747.000000    0.450388
 747.100000    0.450495
 747.200000    0.450602
 747.300000    0.450708
 747.400000    0.450815
 747.500000    0.450921
 747.600000    0.450935
 747.700000    0.450949
 747.800000    0.450963
 747.900000    0.450977
 748.000000    0.450990
 748.100000    0.451006
 748.200000    0.451021
 748.300000    0.451036
 748.400000    0.451051
 748.500000    0.451066
 748.600000    0.451082
 748.700000    0.451097
 748.800000    0.451112
 748.900000    0.451127
 749.000000    0.451142
 749.100000    0.451149
 749.200000    0.451156
 749.300000    0.451163
 749.400000    0.451170
 749.500000    0.451177
 749.600000    0.451184
 749.700000    0.451191
 749.800000    0.451197
 749.900000    0.451204
 750.000000    0.451211
 750.100000    0.451200
 750.200000    0.451188
 750.300000    0.451177
 750.400000    0.451165
 750.500000    0.451154
 750.600000    0.451235
 750.700000    0.451316
 750.800000    0.451398
 750.900000    0.451479
 751.000000    0.451560
 751.100000    0.451557
 751.200000    0.451553
 751.300000    0.451550
 751.400000    0.451546
 751.500000    0.451543
 751.600000    0.451539
 751.700000    0.451536
 751.800000    0.451532
 751.900000    0.451529
 752.000000    0.451525
 752.100000    0.451516
 752.200000    0.451506
 752.300000    0.451497
 752.400000    0.451487
 752.500000    0.451478
 752.600000    0.451468
 752.700000    0.451459
 752.800000    0.451449
 752.900000    0.451440
 753.000000    0.451430
 753.100000    0.451497
 753.200000    0.451565
 753.300000    0.451632
 753.400000    0.451699
 753.500000    0.451766
 753.600000    0.451740
 753.700000    0.451714
 753.800000    0.451687
 753.900000    0.451660
 754.000000    0.451634
 754.100000    0.451604
 754.200000    0.451574
 754.300000    0.451545
 754.400000    0.451517
 754.500000    0.451489
 754.600000    0.451462
 754.700000    0.451436
 754.800000    0.451411
 754.900000    0.451387
 755.000000    0.451364
 755.100000    0.451331
 755.200000    0.451300
 755.300000    0.451269
 755.400000    0.451239
 755.500000    0.451211
 755.600000    0.451183
 755.700000    0.451156
 755.800000    0.451129
 755.900000    0.451103
 756.000000    0.451078
 756.100000    0.451097
 756.200000    0.451117
