# file: r.LSST.pb
# comment: LSST Throughputs files created from syseng_throughputs repo
# comment: Version 1.1
# comment: sha1 acd2b1389ef7356e2125ef6f9dc40a5ffe2af05b
# comment: Aerosols added to atmosphere
# comment: Wavelen_cutoff_BLUE 536.90
# comment: Wavelen_cutoff_RED 706.00
# comment: Wavelength(nm)  Throughput(0-1)
# comment: xref and bandwidth computed from the passband itself
# xtype: lam
# description: full system QE
# bandwidth: 60.72 nm
# instrument: LSST
# ytype: qe
# xref: 622.3
# filter: r
# url: https://github.com/lsst/throughputs/tree/master/baseline
# xunit: nm
 536.500000    0.000000
 536.600000    0.000000
 536.700000    0.000000
 536.800000    0.000000
 536.900000    0.000000
 537.000000    0.000000
 537.100000    0.000827
 537.200000    0.001653
 537.300000    0.002480
 537.400000    0.003307
 537.500000    0.004134
 537.600000    0.004962
 537.700000    0.005813
 537.800000    0.006664
 537.900000    0.007494
 538.000000    0.008324
 538.100000    0.009153
 538.200000    0.009982
 538.300000    0.010811
 538.400000    0.011640
 538.500000    0.012470
 538.600000    0.013299
 538.700000    0.014129
 538.800000    0.014959
 538.900000    0.015811
 539.000000    0.016663
 539.100000    0.017493
 539.200000    0.018322
 539.300000    0.019152
 539.400000    0.019981
 539.500000    0.020810
 539.600000    0.021640
 539.700000    0.022469
 539.800000    0.023299
 539.900000    0.024128
 540.000000    0.024957
 540.100000    0.025807
 540.200000    0.026657
 540.300000    0.027484
 540.400000    0.028312
 540.500000    0.029139
 540.600000    0.029960
 540.700000    0.030780
 540.800000    0.031599
 540.900000    0.032418
 541.000000    0.033236
 541.100000    0.034067
 541.200000    0.034899
 541.300000    0.035752
 541.400000    0.036605
 541.500000    0.037437
 541.600000    0.038268
 541.700000    0.039101
 541.800000    0.039933
 541.900000    0.040765
 542.000000    0.041598
 542.100000    0.043254
 542.200000    0.044910
 542.300000    0.046588
 542.400000    0.048266
 542.500000    0.049922
 542.600000    0.051590
 542.700000    0.053258
 542.800000    0.054927
 542.900000    0.056618
 543.000000    0.058310
 543.100000    0.059968
 543.200000    0.061625
 543.300000    0.063282
 543.400000    0.064939
 543.500000    0.066618
 543.600000    0.068297
 543.700000    0.069954
 543.800000    0.071611
 543.900000    0.073268
 544.000000    0.074925
 544.100000    0.076604
 544.200000    0.078284
 544.300000    0.079943
 544.400000    0.081601
 544.500000    0.083260
 544.600000    0.084919
 544.700000    0.086578
 544.800000    0.088237
 544.900000    0.089919
 545.000000    0.091601
 545.100000    0.093266
 545.200000    0.094932
 545.300000    0.096598
 545.400000    0.098265
 545.500000    0.099953
 545.600000    0.101642
 545.700000    0.103310
 545.800000    0.104978
 545.900000    0.106646
 546.000000    0.108315
 546.100000    0.110002
 546.200000    0.111689
 546.300000    0.113354
 546.400000    0.115019
 546.500000    0.116685
 546.600000    0.118350
 546.700000    0.120038
 546.800000    0.121726
 546.900000    0.123392
 547.000000    0.125058
 547.100000    0.126770
 547.200000    0.128483
 547.300000    0.130219
 547.400000    0.131957
 547.500000    0.133675
 547.600000    0.135363
 547.700000    0.137051
 547.800000    0.138741
 547.900000    0.140452
 548.000000    0.142165
 548.100000    0.143829
 548.200000    0.145492
 548.300000    0.147156
 548.400000    0.148820
 548.500000    0.150505
 548.600000    0.152191
 548.700000    0.153854
 548.800000    0.155518
 548.900000    0.157181
 549.000000    0.158845
 549.100000    0.160530
 549.200000    0.162216
 549.300000    0.163879
 549.400000    0.165543
 549.500000    0.167206
 549.600000    0.168908
 549.700000    0.170610
 549.800000    0.172313
 549.900000    0.174039
 550.000000    0.175765
 550.100000    0.177455
 550.200000    0.179144
 550.300000    0.180835
 550.400000    0.182526
 550.500000    0.184239
 550.600000    0.185952
 550.700000    0.187644
 550.800000    0.189337
 550.900000    0.191030
 551.000000    0.192723
 551.100000    0.194417
 551.200000    0.196112
 551.300000    0.197785
 551.400000    0.199458
 551.500000    0.201131
 551.600000    0.202804
 551.700000    0.204499
 551.800000    0.206194
 551.900000    0.207867
 552.000000    0.209540
 552.100000    0.211236
 552.200000    0.212932
 552.300000    0.214651
 552.400000    0.216370
 552.500000    0.218067
 552.600000    0.219765
 552.700000    0.221463
 552.800000    0.223162
 552.900000    0.224883
 553.000000    0.226605
 553.100000    0.228280
 553.200000    0.229955
 553.300000    0.231630
 553.400000    0.233305
 553.500000    0.235002
 553.600000    0.236699
 553.700000    0.238374
 553.800000    0.240049
 553.900000    0.241725
 554.000000    0.243400
 554.100000    0.245100
 554.200000    0.246801
 554.300000    0.248480
 554.400000    0.250158
 554.500000    0.251837
 554.600000    0.253573
 554.700000    0.255310
 554.800000    0.257048
 554.900000    0.258809
 555.000000    0.260570
 555.100000    0.262273
 555.200000    0.263975
 555.300000    0.265678
 555.400000    0.267381
 555.500000    0.269106
 555.600000    0.270769
 555.700000    0.272409
 555.800000    0.274048
 555.900000    0.275688
 556.000000    0.277326
 556.100000    0.278976
 556.200000    0.280624
 556.300000    0.282250
 556.400000    0.283876
 556.500000    0.285501
 556.600000    0.287190
 556.700000    0.288901
 556.800000    0.290613
 556.900000    0.292302
 557.000000    0.293992
 557.100000    0.295645
 557.200000    0.297297
 557.300000    0.298972
 557.400000    0.300646
 557.500000    0.302298
 557.600000    0.303949
 557.700000    0.305601
 557.800000    0.307252
 557.900000    0.308925
 558.000000    0.310597
 558.100000    0.312257
 558.200000    0.313917
 558.300000    0.315576
 558.400000    0.317236
 558.500000    0.318917
 558.600000    0.320599
 558.700000    0.322258
 558.800000    0.323917
 558.900000    0.325575
 559.000000    0.327234
 559.100000    0.328891
 559.200000    0.330547
 559.300000    0.332181
 559.400000    0.333815
 559.500000    0.335448
 559.600000    0.337005
 559.700000    0.338561
 559.800000    0.340116
 559.900000    0.341691
 560.000000    0.343266
 560.100000    0.344950
 560.200000    0.346635
 560.300000    0.348319
 560.400000    0.350004
 560.500000    0.351711
 560.600000    0.353418
 560.700000    0.355103
 560.800000    0.356789
 560.900000    0.358475
 561.000000    0.360160
 561.100000    0.361847
 561.200000    0.363533
 561.300000    0.365198
 561.400000    0.366862
 561.500000    0.368526
 561.600000    0.370107
 561.700000    0.371709
 561.800000    0.373310
 561.900000    0.374889
 562.000000    0.376466
 562.100000    0.378122
 562.200000    0.379779
 562.300000    0.381457
 562.400000    0.383135
 562.500000    0.384791
 562.600000    0.386447
 562.700000    0.387905
 562.800000    0.389364
 562.900000    0.390186
 563.000000    0.391009
 563.100000    0.391856
 563.200000    0.392704
 563.300000    0.393552
 563.400000    0.394399
 563.500000    0.395247
 563.600000    0.396095
 563.700000    0.396965
 563.800000    0.397835
 563.900000    0.398683
 564.000000    0.399531
 564.100000    0.400328
 564.200000    0.401125
 564.300000    0.401922
 564.400000    0.402719
 564.500000    0.403516
 564.600000    0.404404
 564.700000    0.405292
 564.800000    0.406180
 564.900000    0.407069
 565.000000    0.407958
 565.100000    0.408821
 565.200000    0.409685
 565.300000    0.410526
 565.400000    0.411367
 565.500000    0.412209
 565.600000    0.413050
 565.700000    0.413892
 565.800000    0.414733
 565.900000    0.415575
 566.000000    0.416416
 566.100000    0.417318
 566.200000    0.418220
 566.300000    0.418507
 566.400000    0.418795
 566.500000    0.418863
 566.600000    0.418931
 566.700000    0.418999
 566.800000    0.419067
 566.900000    0.419135
 567.000000    0.419204
 567.100000    0.419239
 567.200000    0.419274
 567.300000    0.419309
 567.400000    0.419345
 567.500000    0.419380
 567.600000    0.419415
 567.700000    0.419450
 567.800000    0.419485
 567.900000    0.419521
 568.000000    0.419556
 568.100000    0.419524
 568.200000    0.419492
 568.300000    0.419460
 568.400000    0.419428
 568.500000    0.419396
 568.600000    0.419364
 568.700000    0.419332
 568.800000    0.419300
 568.900000    0.419267
 569.000000    0.419235
 569.100000    0.419286
 569.200000    0.419337
 569.300000    0.419387
 569.400000    0.419438
 569.500000    0.419489
 569.600000    0.419540
 569.700000    0.419590
 569.800000    0.419641
 569.900000    0.419692
 570.000000    0.419743
 570.100000    0.419896
 570.200000    0.420050
 570.300000    0.420204
 570.400000    0.420357
 570.500000    0.420511
 570.600000    0.420569
 570.700000    0.420628
 570.800000    0.420686
 570.900000    0.420745
 571.000000    0.420803
 571.100000    0.420869
 571.200000    0.420934
 571.300000    0.420999
 571.400000    0.421064
 571.500000    0.421129
 571.600000    0.421195
 571.700000    0.421260
 571.800000    0.421325
 571.900000    0.421390
 572.000000    0.421456
 572.100000    0.421494
 572.200000    0.421533
 572.300000    0.421572
 572.400000    0.421611
 572.500000    0.421650
 572.600000    0.421689
 572.700000    0.421728
 572.800000    0.421767
 572.900000    0.421806
 573.000000    0.421844
 573.100000    0.421997
 573.200000    0.422149
 573.300000    0.422302
 573.400000    0.422454
 573.500000    0.422606
 573.600000    0.422663
 573.700000    0.422720
 573.800000    0.422777
 573.900000    0.422834
 574.000000    0.422891
 574.100000    0.422988
 574.200000    0.423085
 574.300000    0.423182
 574.400000    0.423279
 574.500000    0.423376
 574.600000    0.423473
 574.700000    0.423570
 574.800000    0.423667
 574.900000    0.423764
 575.000000    0.423861
 575.100000    0.424006
 575.200000    0.424151
 575.300000    0.424296
 575.400000    0.424441
 575.500000    0.424586
 575.600000    0.424635
 575.700000    0.424684
 575.800000    0.424733
 575.900000    0.424782
 576.000000    0.424831
 576.100000    0.424979
 576.200000    0.425128
 576.300000    0.425276
 576.400000    0.425424
 576.500000    0.425572
 576.600000    0.425625
 576.700000    0.425677
 576.800000    0.425729
 576.900000    0.425781
 577.000000    0.425834
 577.100000    0.425960
 577.200000    0.426085
 577.300000    0.426211
 577.400000    0.426337
 577.500000    0.426463
 577.600000    0.426493
 577.700000    0.426523
 577.800000    0.426553
 577.900000    0.426582
 578.000000    0.426612
 578.100000    0.426770
 578.200000    0.426927
 578.300000    0.427085
 578.400000    0.427243
 578.500000    0.427401
 578.600000    0.427462
 578.700000    0.427524
 578.800000    0.427585
 578.900000    0.427647
 579.000000    0.427708
 579.100000    0.427856
 579.200000    0.428005
 579.300000    0.428153
 579.400000    0.428301
 579.500000    0.428449
 579.600000    0.428501
 579.700000    0.428553
 579.800000    0.428604
 579.900000    0.428656
 580.000000    0.428708
 580.100000    0.428741
 580.200000    0.428774
 580.300000    0.428807
 580.400000    0.428841
 580.500000    0.428874
 580.600000    0.429003
 580.700000    0.429133
 580.800000    0.429263
 580.900000    0.429392
 581.000000    0.429522
 581.100000    0.429513
 581.200000    0.429505
 581.300000    0.429496
 581.400000    0.429487
 581.500000    0.429478
 581.600000    0.429566
 581.700000    0.429654
 581.800000    0.429742
 581.900000    0.429830
 582.000000    0.429917
 582.100000    0.429944
 582.200000    0.429972
 582.300000    0.429999
 582.400000    0.430026
 582.500000    0.430053
 582.600000    0.430177
 582.700000    0.430300
 582.800000    0.430424
 582.900000    0.430547
 583.000000    0.430671
 583.100000    0.430721
 583.200000    0.430771
 583.300000    0.430820
 583.400000    0.430870
 583.500000    0.430920
 583.600000    0.430969
 583.700000    0.431018
 583.800000    0.431067
 583.900000    0.431116
 584.000000    0.431165
 584.100000    0.431179
 584.200000    0.431194
 584.300000    0.431208
 584.400000    0.431223
 584.500000    0.431239
 584.600000    0.431351
 584.700000    0.431464
 584.800000    0.431577
 584.900000    0.431691
 585.000000    0.431806
 585.100000    0.431843
 585.200000    0.431882
 585.300000    0.431921
 585.400000    0.431962
 585.500000    0.432004
 585.600000    0.432046
 585.700000    0.432090
 585.800000    0.432135
 585.900000    0.432181
 586.000000    0.432228
 586.100000    0.432223
 586.200000    0.432219
 586.300000    0.432216
 586.400000    0.432212
 586.500000    0.432209
 586.600000    0.432206
 586.700000    0.432202
 586.800000    0.432199
 586.900000    0.432195
 587.000000    0.432192
 587.100000    0.432157
 587.200000    0.432122
 587.300000    0.432087
 587.400000    0.432052
 587.500000    0.432017
 587.600000    0.431884
 587.700000    0.431751
 587.800000    0.431619
 587.900000    0.431486
 588.000000    0.431354
 588.100000    0.431079
 588.200000    0.430805
 588.300000    0.430530
 588.400000    0.430256
 588.500000    0.429981
 588.600000    0.429805
 588.700000    0.429630
 588.800000    0.429455
 588.900000    0.429279
 589.000000    0.429103
 589.100000    0.429104
 589.200000    0.429103
 589.300000    0.429101
 589.400000    0.429098
 589.500000    0.429092
 589.600000    0.428988
 589.700000    0.428882
 589.800000    0.428774
 589.900000    0.428664
 590.000000    0.428553
 590.100000    0.428682
 590.200000    0.428810
 590.300000    0.428935
 590.400000    0.429059
 590.500000    0.429181
 590.600000    0.429301
 590.700000    0.429419
 590.800000    0.429535
 590.900000    0.429650
 591.000000    0.429764
 591.100000    0.429644
 591.200000    0.429524
 591.300000    0.429404
 591.400000    0.429284
 591.500000    0.429165
 591.600000    0.428950
 591.700000    0.428735
 591.800000    0.428520
 591.900000    0.428306
 592.000000    0.428092
 592.100000    0.428025
 592.200000    0.427958
 592.300000    0.427892
 592.400000    0.427826
 592.500000    0.427760
 592.600000    0.427983
 592.700000    0.428207
 592.800000    0.428430
 592.900000    0.428652
 593.000000    0.428875
 593.100000    0.428911
 593.200000    0.428946
 593.300000    0.428982
 593.400000    0.429017
 593.500000    0.429053
 593.600000    0.428798
 593.700000    0.428544
 593.800000    0.428289
 593.900000    0.428035
 594.000000    0.427782
 594.100000    0.427368
 594.200000    0.426955
 594.300000    0.426543
 594.400000    0.426133
 594.500000    0.425724
 594.600000    0.425896
 594.700000    0.426068
 594.800000    0.426242
 594.900000    0.426418
 595.000000    0.426595
 595.100000    0.426839
 595.200000    0.427084
 595.300000    0.427331
 595.400000    0.427579
 595.500000    0.427829
 595.600000    0.427887
 595.700000    0.427947
 595.800000    0.428008
 595.900000    0.428070
 596.000000    0.428134
 596.100000    0.428096
 596.200000    0.428058
 596.300000    0.428021
 596.400000    0.427984
 596.500000    0.427947
 596.600000    0.427813
 596.700000    0.427679
 596.800000    0.427545
 596.900000    0.427411
 597.000000    0.427277
 597.100000    0.427248
 597.200000    0.427218
 597.300000    0.427188
 597.400000    0.427158
 597.500000    0.427128
 597.600000    0.427193
 597.700000    0.427259
 597.800000    0.427325
 597.900000    0.427391
 598.000000    0.427457
 598.100000    0.427459
 598.200000    0.427461
 598.300000    0.427463
 598.400000    0.427465
 598.500000    0.427468
 598.600000    0.427471
 598.700000    0.427475
 598.800000    0.427480
 598.900000    0.427484
 599.000000    0.427488
 599.100000    0.427550
 599.200000    0.427610
 599.300000    0.427670
 599.400000    0.427728
 599.500000    0.427784
 599.600000    0.427742
 599.700000    0.427698
 599.800000    0.427653
 599.900000    0.427605
 600.000000    0.427556
 600.100000    0.427594
 600.200000    0.427631
 600.300000    0.427665
 600.400000    0.427698
 600.500000    0.427729
 600.600000    0.427662
 600.700000    0.427593
 600.800000    0.427523
 600.900000    0.427451
 601.000000    0.427378
 601.100000    0.427369
 601.200000    0.427360
 601.300000    0.427351
 601.400000    0.427342
 601.500000    0.427333
 601.600000    0.427326
 601.700000    0.427319
 601.800000    0.427312
 601.900000    0.427305
 602.000000    0.427298
 602.100000    0.427319
 602.200000    0.427340
 602.300000    0.427361
 602.400000    0.427382
 602.500000    0.427404
 602.600000    0.427329
 602.700000    0.427254
 602.800000    0.427179
 602.900000    0.427104
 603.000000    0.427028
 603.100000    0.427015
 603.200000    0.427002
 603.300000    0.426988
 603.400000    0.426975
 603.500000    0.426962
 603.600000    0.427044
 603.700000    0.427127
 603.800000    0.427209
 603.900000    0.427292
 604.000000    0.427376
 604.100000    0.427339
 604.200000    0.427302
 604.300000    0.427267
 604.400000    0.427232
 604.500000    0.427199
 604.600000    0.427262
 604.700000    0.427327
 604.800000    0.427392
 604.900000    0.427459
 605.000000    0.427526
 605.100000    0.427518
 605.200000    0.427510
 605.300000    0.427503
 605.400000    0.427496
 605.500000    0.427489
 605.600000    0.427579
 605.700000    0.427669
 605.800000    0.427759
 605.900000    0.427849
 606.000000    0.427940
 606.100000    0.427946
 606.200000    0.427951
 606.300000    0.427957
 606.400000    0.427962
 606.500000    0.427967
 606.600000    0.428068
 606.700000    0.428168
 606.800000    0.428269
 606.900000    0.428369
 607.000000    0.428470
 607.100000    0.428460
 607.200000    0.428451
 607.300000    0.428442
 607.400000    0.428432
 607.500000    0.428423
 607.600000    0.428509
 607.700000    0.428595
 607.800000    0.428682
 607.900000    0.428768
 608.000000    0.428854
 608.100000    0.428890
 608.200000    0.428926
 608.300000    0.428962
 608.400000    0.428997
 608.500000    0.429033
 608.600000    0.429165
 608.700000    0.429296
 608.800000    0.429428
 608.900000    0.429559
 609.000000    0.429690
 609.100000    0.429742
 609.200000    0.429794
 609.300000    0.429846
 609.400000    0.429898
 609.500000    0.429949
 609.600000    0.430097
 609.700000    0.430244
 609.800000    0.430392
 609.900000    0.430540
 610.000000    0.430687
 610.100000    0.430838
 610.200000    0.430990
 610.300000    0.431141
 610.400000    0.431292
 610.500000    0.431444
 610.600000    0.431499
 610.700000    0.431554
 610.800000    0.431610
 610.900000    0.431665
 611.000000    0.431721
 611.100000    0.431848
 611.200000    0.431974
 611.300000    0.432101
 611.400000    0.432228
 611.500000    0.432355
 611.600000    0.432386
 611.700000    0.432417
 611.800000    0.432447
 611.900000    0.432478
 612.000000    0.432509
 612.100000    0.432709
 612.200000    0.432909
 612.300000    0.433109
 612.400000    0.433309
 612.500000    0.433508
 612.600000    0.433612
 612.700000    0.433716
 612.800000    0.433820
 612.900000    0.433924
 613.000000    0.434028
 613.100000    0.434162
 613.200000    0.434297
 613.300000    0.434431
 613.400000    0.434566
 613.500000    0.434700
 613.600000    0.434835
 613.700000    0.434969
 613.800000    0.435104
 613.900000    0.435238
 614.000000    0.435373
 614.100000    0.435454
 614.200000    0.435536
 614.300000    0.435617
 614.400000    0.435698
 614.500000    0.435780
 614.600000    0.435958
 614.700000    0.436136
 614.800000    0.436313
 614.900000    0.436491
 615.000000    0.436669
 615.100000    0.436717
 615.200000    0.436764
 615.300000    0.436811
 615.400000    0.436858
 615.500000    0.436906
 615.600000    0.437049
 615.700000    0.437193
 615.800000    0.437337
 615.900000    0.437481
 616.000000    0.437625
 616.100000    0.437737
 616.200000    0.437849
 616.300000    0.437961
 616.400000    0.438073
 616.500000    0.438185
 616.600000    0.438394
 616.700000    0.438603
 616.800000    0.438812
 616.900000    0.439021
 617.000000    0.439230
 617.100000    0.439268
 617.200000    0.439307
