# file: z.LSST.pb
# comment: LSST Throughputs files created from syseng_throughputs repo
# comment: Version 1.1
# comment: sha1 acd2b1389ef7356e2125ef6f9dc40a5ffe2af05b
# comment: Aerosols added to atmosphere
# comment: Wavelen_cutoff_BLUE 802.90
# comment: Wavelen_cutoff_RED 938.60
# comment: Wavelength(nm)  Throughput(0-1)
# comment: xref and bandwidth computed from the passband itself
# xtype: lam
# description: full system QE
# bandwidth: 44.14 nm
# instrument: LSST
# ytype: qe
# xref: 869.1
# filter: z
# url: https://github.com/lsst/throughputs/tree/master/baseline
# xunit: nm
 802.500000    0.000000
 802.600000    0.000000
 802.700000    0.000000
 802.800000    0.000000
 802.900000    0.000000
 803.000000    0.000000
 803.100000    0.000887
 803.200000    0.001775
 803.300000    0.002640
 803.400000    0.003505
 803.500000    0.004394
 803.600000    0.005282
 803.700000    0.006147
 803.800000    0.007013
 803.900000    0.007901
 804.000000    0.008790
 804.100000    0.009654
 804.200000    0.010517
 804.300000    0.011405
 804.400000    0.012291
 804.500000    0.013155
 804.600000    0.014024
 804.700000    0.014917
 804.800000    0.015810
 804.900000    0.016704
 805.000000    0.017599
 805.100000    0.018472
 805.200000    0.019346
 805.300000    0.020243
 805.400000    0.021142
 805.500000    0.022018
 805.600000    0.022885
 805.700000    0.023775
 805.800000    0.024666
 805.900000    0.025533
 806.000000    0.026400
 806.100000    0.027289
 806.200000    0.028179
 806.300000    0.029069
 806.400000    0.029959
 806.500000    0.030825
 806.600000    0.031691
 806.700000    0.032581
 806.800000    0.033470
 806.900000    0.034336
 807.000000    0.035202
 807.100000    0.036089
 807.200000    0.036976
 807.300000    0.037838
 807.400000    0.038701
 807.500000    0.039587
 807.600000    0.040473
 807.700000    0.041335
 807.800000    0.042196
 807.900000    0.043082
 808.000000    0.043966
 808.100000    0.045710
 808.200000    0.047452
 808.300000    0.049193
 808.400000    0.050933
 808.500000    0.052673
 808.600000    0.054411
 808.700000    0.056148
 808.800000    0.057885
 808.900000    0.059643
 809.000000    0.061401
 809.100000    0.063142
 809.200000    0.064882
 809.300000    0.066621
 809.400000    0.068360
 809.500000    0.070099
 809.600000    0.071851
 809.700000    0.073604
 809.800000    0.075356
 809.900000    0.077109
 810.000000    0.078862
 810.100000    0.080613
 810.200000    0.082364
 810.300000    0.084115
 810.400000    0.085866
 810.500000    0.087641
 810.600000    0.089378
 810.700000    0.091091
 810.800000    0.092803
 810.900000    0.094513
 811.000000    0.096222
 811.100000    0.097899
 811.200000    0.099572
 811.300000    0.101244
 811.400000    0.102913
 811.500000    0.104579
 811.600000    0.106265
 811.700000    0.107949
 811.800000    0.109631
 811.900000    0.111311
 812.000000    0.112990
 812.100000    0.114729
 812.200000    0.116468
 812.300000    0.118184
 812.400000    0.119898
 812.500000    0.121612
 812.600000    0.123147
 812.700000    0.124676
 812.800000    0.126200
 812.900000    0.127718
 813.000000    0.129230
 813.100000    0.130534
 813.200000    0.131827
 813.300000    0.133109
 813.400000    0.134381
 813.500000    0.135641
 813.600000    0.137152
 813.700000    0.138659
 813.800000    0.140162
 813.900000    0.141682
 814.000000    0.143198
 814.100000    0.144793
 814.200000    0.146386
 814.300000    0.147977
 814.400000    0.149566
 814.500000    0.151153
 814.600000    0.152510
 814.700000    0.153859
 814.800000    0.155201
 814.900000    0.156536
 815.000000    0.157863
 815.100000    0.159133
 815.200000    0.160395
 815.300000    0.161648
 815.400000    0.162894
 815.500000    0.164153
 815.600000    0.165440
 815.700000    0.166699
 815.800000    0.167950
 815.900000    0.169193
 816.000000    0.170429
 816.100000    0.171808
 816.200000    0.173182
 816.300000    0.174552
 816.400000    0.175917
 816.500000    0.177277
 816.600000    0.179430
 816.700000    0.181592
 816.800000    0.183764
 816.900000    0.185946
 817.000000    0.188138
 817.100000    0.189799
 817.200000    0.191461
 817.300000    0.193101
 817.400000    0.194742
 817.500000    0.196382
 817.600000    0.197241
 817.700000    0.198087
 817.800000    0.198920
 817.900000    0.199740
 818.000000    0.200548
 818.100000    0.202772
 818.200000    0.205006
 818.300000    0.207250
 818.400000    0.209503
 818.500000    0.211767
 818.600000    0.213899
 818.700000    0.216039
 818.800000    0.218186
 818.900000    0.220363
 819.000000    0.222548
 819.100000    0.224241
 819.200000    0.225935
 819.300000    0.227629
 819.400000    0.229325
 819.500000    0.231021
 819.600000    0.232667
 819.700000    0.234313
 819.800000    0.235959
 819.900000    0.237605
 820.000000    0.239251
 820.100000    0.242162
 820.200000    0.245091
 820.300000    0.248037
 820.400000    0.251000
 820.500000    0.254003
 820.600000    0.256699
 820.700000    0.259385
 820.800000    0.262085
 820.900000    0.264797
 821.000000    0.267522
 821.100000    0.269122
 821.200000    0.270720
 821.300000    0.272316
 821.400000    0.273911
 821.500000    0.275505
 821.600000    0.276577
 821.700000    0.277640
 821.800000    0.278696
 821.900000    0.279744
 822.000000    0.280785
 822.100000    0.280147
 822.200000    0.279480
 822.300000    0.278763
 822.400000    0.278016
 822.500000    0.277241
 822.600000    0.275639
 822.700000    0.273998
 822.800000    0.272320
 822.900000    0.270603
 823.000000    0.268848
 823.100000    0.271820
 823.200000    0.274808
 823.300000    0.277812
 823.400000    0.280832
 823.500000    0.283869
 823.600000    0.288804
 823.700000    0.293777
 823.800000    0.298786
 823.900000    0.303854
 824.000000    0.308959
 824.100000    0.311962
 824.200000    0.314980
 824.300000    0.318012
 824.400000    0.321058
 824.500000    0.324119
 824.600000    0.326166
 824.700000    0.328217
 824.800000    0.330271
 824.900000    0.332329
 825.000000    0.334391
 825.100000    0.335773
 825.200000    0.337153
 825.300000    0.338529
 825.400000    0.339901
 825.500000    0.341293
 825.600000    0.342681
 825.700000    0.344043
 825.800000    0.345402
 825.900000    0.346757
 826.000000    0.348109
 826.100000    0.350680
 826.200000    0.353259
 826.300000    0.355846
 826.400000    0.358442
 826.500000    0.361046
 826.600000    0.363053
 826.700000    0.365062
 826.800000    0.367075
 826.900000    0.369090
 827.000000    0.371107
 827.100000    0.370963
 827.200000    0.370800
 827.300000    0.370598
 827.400000    0.370379
 827.500000    0.370142
 827.600000    0.370681
 827.700000    0.371210
 827.800000    0.371729
 827.900000    0.372237
 828.000000    0.372736
 828.100000    0.375157
 828.200000    0.377585
 828.300000    0.380020
 828.400000    0.382462
 828.500000    0.384911
 828.600000    0.386621
 828.700000    0.388130
 828.800000    0.389640
 828.900000    0.390526
 829.000000    0.391413
 829.100000    0.392540
 829.200000    0.393668
 829.300000    0.394820
 829.400000    0.395974
 829.500000    0.397106
 829.600000    0.398749
 829.700000    0.400417
 829.800000    0.402089
 829.900000    0.403742
 830.000000    0.405398
 830.100000    0.406486
 830.200000    0.407575
 830.300000    0.408664
 830.400000    0.409755
 830.500000    0.410824
 830.600000    0.412502
 830.700000    0.414206
 830.800000    0.415913
 830.900000    0.417602
 831.000000    0.419294
 831.100000    0.420106
 831.200000    0.420918
 831.300000    0.421706
 831.400000    0.422494
 831.500000    0.423305
 831.600000    0.423141
 831.700000    0.422949
 831.800000    0.422753
 831.900000    0.422575
 832.000000    0.422393
 832.100000    0.423961
 832.200000    0.425532
 832.300000    0.426446
 832.400000    0.427361
 832.500000    0.428072
 832.600000    0.429052
 832.700000    0.430033
 832.800000    0.431013
 832.900000    0.431993
 833.000000    0.432973
 833.100000    0.432815
 833.200000    0.432658
 833.300000    0.432500
 833.400000    0.432343
 833.500000    0.432185
 833.600000    0.432298
 833.700000    0.432411
 833.800000    0.432524
 833.900000    0.432637
 834.000000    0.432750
 834.100000    0.433457
 834.200000    0.434163
 834.300000    0.434869
 834.400000    0.435574
 834.500000    0.436278
 834.600000    0.436532
 834.700000    0.436786
 834.800000    0.437038
 834.900000    0.437290
 835.000000    0.437540
 835.100000    0.437358
 835.200000    0.437174
 835.300000    0.436990
 835.400000    0.436805
 835.500000    0.436619
 835.600000    0.436612
 835.700000    0.436605
 835.800000    0.436596
 835.900000    0.436587
 836.000000    0.436578
 836.100000    0.436726
 836.200000    0.436874
 836.300000    0.437022
 836.400000    0.437170
 836.500000    0.437318
 836.600000    0.437467
 836.700000    0.437616
 836.800000    0.437765
 836.900000    0.437914
 837.000000    0.438063
 837.100000    0.438163
 837.200000    0.438262
 837.300000    0.438361
 837.400000    0.438460
 837.500000    0.438558
 837.600000    0.438567
 837.700000    0.438575
 837.800000    0.438583
 837.900000    0.438591
 838.000000    0.438598
 838.100000    0.438729
 838.200000    0.438860
 838.300000    0.438990
 838.400000    0.439120
 838.500000    0.439250
 838.600000    0.439290
 838.700000    0.439329
 838.800000    0.439368
 838.900000    0.439407
 839.000000    0.439445
 839.100000    0.439436
 839.200000    0.439428
 839.300000    0.439419
 839.400000    0.439411
 839.500000    0.439403
 839.600000    0.439485
 839.700000    0.439567
 839.800000    0.439650
 839.900000    0.439733
 840.000000    0.439816
 840.100000    0.439701
 840.200000    0.439587
 840.300000    0.439472
 840.400000    0.439358
 840.500000    0.439245
 840.600000    0.439131
 840.700000    0.439018
 840.800000    0.438905
 840.900000    0.438792
 841.000000    0.438680
 841.100000    0.438750
 841.200000    0.438820
 841.300000    0.438890
 841.400000    0.438959
 841.500000    0.439029
 841.600000    0.439099
 841.700000    0.439169
 841.800000    0.439238
 841.900000    0.439308
 842.000000    0.439377
 842.100000    0.439503
 842.200000    0.439628
 842.300000    0.439754
 842.400000    0.439879
 842.500000    0.440005
 842.600000    0.440041
 842.700000    0.440076
 842.800000    0.440112
 842.900000    0.440148
 843.000000    0.440184
 843.100000    0.440094
 843.200000    0.440004
 843.300000    0.439913
 843.400000    0.439823
 843.500000    0.439733
 843.600000    0.439821
 843.700000    0.439908
 843.800000    0.439995
 843.900000    0.440082
 844.000000    0.440169
 844.100000    0.440139
 844.200000    0.440110
 844.300000    0.440082
 844.400000    0.440055
 844.500000    0.440030
 844.600000    0.440096
 844.700000    0.440163
 844.800000    0.440233
 844.900000    0.440304
 845.000000    0.440377
 845.100000    0.440446
 845.200000    0.440518
 845.300000    0.440591
 845.400000    0.440665
 845.500000    0.440742
 845.600000    0.440730
 845.700000    0.440720
 845.800000    0.440712
 845.900000    0.440704
 846.000000    0.440697
 846.100000    0.440576
 846.200000    0.440455
 846.300000    0.440334
 846.400000    0.440213
 846.500000    0.440091
 846.600000    0.440147
 846.700000    0.440203
 846.800000    0.440259
 846.900000    0.440315
 847.000000    0.440371
 847.100000    0.440407
 847.200000    0.440443
 847.300000    0.440479
 847.400000    0.440515
 847.500000    0.440551
 847.600000    0.440497
 847.700000    0.440443
 847.800000    0.440390
 847.900000    0.440336
 848.000000    0.440282
 848.100000    0.440318
 848.200000    0.440354
 848.300000    0.440390
 848.400000    0.440426
 848.500000    0.440461
 848.600000    0.440498
 848.700000    0.440536
 848.800000    0.440574
 848.900000    0.440612
 849.000000    0.440649
 849.100000    0.440635
 849.200000    0.440620
 849.300000    0.440603
 849.400000    0.440586
 849.500000    0.440567
 849.600000    0.440546
 849.700000    0.440524
 849.800000    0.440499
 849.900000    0.440473
 850.000000    0.440445
 850.100000    0.440465
 850.200000    0.440483
 850.300000    0.440499
 850.400000    0.440513
 850.500000    0.440525
 850.600000    0.440536
 850.700000    0.440545
 850.800000    0.440553
 850.900000    0.440560
 851.000000    0.440566
 851.100000    0.440522
 851.200000    0.440478
 851.300000    0.440434
 851.400000    0.440390
 851.500000    0.440347
 851.600000    0.440484
 851.700000    0.440621
 851.800000    0.440759
 851.900000    0.440896
 852.000000    0.441033
 852.100000    0.441050
 852.200000    0.441066
 852.300000    0.441082
 852.400000    0.441098
 852.500000    0.441114
 852.600000    0.441220
 852.700000    0.441326
 852.800000    0.441432
 852.900000    0.441538
 853.000000    0.441644
 853.100000    0.441649
 853.200000    0.441653
 853.300000    0.441658
 853.400000    0.441663
 853.500000    0.441667
 853.600000    0.441581
 853.700000    0.441494
 853.800000    0.441407
 853.900000    0.441320
 854.000000    0.441233
 854.100000    0.441243
 854.200000    0.441253
 854.300000    0.441265
 854.400000    0.441278
 854.500000    0.441292
 854.600000    0.441398
 854.700000    0.441506
 854.800000    0.441615
 854.900000    0.441727
 855.000000    0.441840
 855.100000    0.441942
 855.200000    0.442047
 855.300000    0.442153
 855.400000    0.442261
 855.500000    0.442371
 855.600000    0.442482
 855.700000    0.442595
 855.800000    0.442709
 855.900000    0.442825
 856.000000    0.442941
 856.100000    0.442903
 856.200000    0.442864
 856.300000    0.442826
 856.400000    0.442787
 856.500000    0.442748
 856.600000    0.442708
 856.700000    0.442667
 856.800000    0.442627
 856.900000    0.442586
 857.000000    0.442546
 857.100000    0.442561
 857.200000    0.442576
 857.300000    0.442591
 857.400000    0.442606
 857.500000    0.442620
 857.600000    0.442725
 857.700000    0.442830
 857.800000    0.442935
 857.900000    0.443040
 858.000000    0.443144
 858.100000    0.443153
 858.200000    0.443161
 858.300000    0.443170
 858.400000    0.443178
 858.500000    0.443187
 858.600000    0.443196
 858.700000    0.443206
 858.800000    0.443217
 858.900000    0.443227
 859.000000    0.443238
 859.100000    0.443274
 859.200000    0.443309
 859.300000    0.443343
 859.400000    0.443376
 859.500000    0.443407
 859.600000    0.443437
 859.700000    0.443465
 859.800000    0.443491
 859.900000    0.443516
 860.000000    0.443538
 860.100000    0.443519
 860.200000    0.443497
 860.300000    0.443474
 860.400000    0.443448
 860.500000    0.443421
 860.600000    0.443393
 860.700000    0.443363
 860.800000    0.443332
 860.900000    0.443299
 861.000000    0.443266
 861.100000    0.443259
 861.200000    0.443251
 861.300000    0.443243
 861.400000    0.443236
 861.500000    0.443230
 861.600000    0.443224
 861.700000    0.443219
 861.800000    0.443213
 861.900000    0.443208
 862.000000    0.443202
 862.100000    0.443273
 862.200000    0.443344
 862.300000    0.443415
 862.400000    0.443485
 862.500000    0.443556
 862.600000    0.443537
 862.700000    0.443518
 862.800000    0.443499
 862.900000    0.443480
 863.000000    0.443460
 863.100000    0.443485
 863.200000    0.443509
 863.300000    0.443533
 863.400000    0.443557
 863.500000    0.443581
 863.600000    0.443604
 863.700000    0.443627
 863.800000    0.443649
 863.900000    0.443671
 864.000000    0.443693
 864.100000    0.443691
 864.200000    0.443691
 864.300000    0.443691
 864.400000    0.443693
 864.500000    0.443696
 864.600000    0.443701
 864.700000    0.443708
 864.800000    0.443716
 864.900000    0.443726
 865.000000    0.443738
 865.100000    0.443730
 865.200000    0.443724
 865.300000    0.443720
 865.400000    0.443718
 865.500000    0.443717
 865.600000    0.443719
 865.700000    0.443721
 865.800000    0.443725
 865.900000    0.443730
 866.000000    0.443735
 866.100000    0.443761
 866.200000    0.443788
 866.300000    0.443814
 866.400000    0.443840
 866.500000    0.443865
 866.600000    0.443889
 866.700000    0.443913
 866.800000    0.443937
 866.900000    0.443961
 867.000000    0.443985
 867.100000    0.443912
 867.200000    0.443839
 867.300000    0.443765
 867.400000    0.443692
 867.500000    0.443619
 867.600000    0.443546
 867.700000    0.443473
 867.800000    0.443399
 867.900000    0.443326
 868.000000    0.443253
 868.100000    0.443284
 868.200000    0.443315
 868.300000    0.443346
 868.400000    0.443377
 868.500000    0.443408
 868.600000    0.443441
 868.700000    0.443476
 868.800000    0.443511
 868.900000    0.443546
 869.000000    0.443581
 869.100000    0.443563
 869.200000    0.443544
 869.300000    0.443522
 869.400000    0.443498
 869.500000    0.443470
 869.600000    0.443530
 869.700000    0.443586
 869.800000    0.443639
 869.900000    0.443688
 870.000000    0.443733
 870.100000    0.443711
 870.200000    0.443685
 870.300000    0.443655
 870.400000    0.443622
 870.500000    0.443584
 870.600000    0.443544
 870.700000    0.443500
 870.800000    0.443453
 870.900000    0.443403
 871.000000    0.443352
 871.100000    0.443278
 871.200000    0.443203
 871.300000    0.443128
 871.400000    0.443053
 871.500000    0.442980
 871.600000    0.442908
 871.700000    0.442836
 871.800000    0.442764
 871.900000    0.442691
 872.000000    0.442619
 872.100000    0.442568
 872.200000    0.442516
 872.300000    0.442465
 872.400000    0.442413
 872.500000    0.442362
 872.600000    0.442311
 872.700000    0.442260
 872.800000    0.442208
 872.900000    0.442157
 873.000000    0.442106
 873.100000    0.442051
 873.200000    0.441996
 873.300000    0.441940
 873.400000    0.441885
 873.500000    0.441830
 873.600000    0.441773
 873.700000    0.441715
 873.800000    0.441656
 873.900000    0.441597
 874.000000    0.441539
 874.100000    0.441528
 874.200000    0.441518
 874.300000    0.441510
 874.400000    0.441505
 874.500000    0.441501
 874.600000    0.441501
 874.700000    0.441503
 874.800000    0.441508
 874.900000    0.441516
 875.000000    0.441528
 875.100000    0.441457
 875.200000    0.441389
 875.300000    0.441324
 875.400000    0.441262
 875.500000    0.441203
 875.600000    0.441147
 875.700000    0.441093
 875.800000    0.441041
 875.900000    0.440991
 876.000000    0.440943
 876.100000    0.440959
 876.200000    0.440977
 876.300000    0.440994
 876.400000    0.441010
 876.500000    0.441026
 876.600000    0.441039
 876.700000    0.441053
 876.800000    0.441066
 876.900000    0.441080
 877.000000    0.441093
 877.100000    0.441050
 877.200000    0.441007
 877.300000    0.440964
 877.400000    0.440921
 877.500000    0.440878
 877.600000    0.440835
 877.700000    0.440792
 877.800000    0.440749
 877.900000    0.440706
 878.000000    0.440663
 878.100000    0.440615
 878.200000    0.440567
 878.300000    0.440520
 878.400000    0.440472
 878.500000    0.440424
 878.600000    0.440375
 878.700000    0.440325
 878.800000    0.440275
 878.900000    0.440225
 879.000000    0.440175
 879.100000    0.440224
 879.200000    0.440275
 879.300000    0.440326
 879.400000    0.440379
 879.500000    0.440434
 879.600000    0.440491
 879.700000    0.440549
 879.800000    0.440610
 879.900000    0.440673
 880.000000    0.440738
 880.100000    0.440737
 880.200000    0.440737
 880.300000    0.440740
 880.400000    0.440745
 880.500000    0.440752
 880.600000    0.440761
 880.700000    0.440772
 880.800000    0.440785
 880.900000    0.440798
 881.000000    0.440813
 881.100000    0.440811
 881.200000    0.440809
 881.300000    0.440807
 881.400000    0.440804
 881.500000    0.440800
 881.600000    0.440705
 881.700000    0.440609
 881.800000    0.440513
 881.900000    0.440417
 882.000000    0.440320
 882.100000    0.440270
 882.200000    0.440219
 882.300000    0.440168
 882.400000    0.440117
 882.500000    0.440066
 882.600000    0.439926
 882.700000    0.439785
 882.800000    0.439645
 882.900000    0.439505
 883.000000    0.439365
 883.100000    0.439319
 883.200000    0.439273
