# file: BP_GAIA.Euclid.pb
# instrument: Euclid
# system: AB
# xtype: wavelength
# ytype: qe
# description: Full system QE
# comment: SPV2 values from SPV02 branch of the Euclid MDB
# comment: MDB file: EUC_MDB_MISSIONCONFIGURATION-SPV02_2018-06-16T140000.00Z_01.01.xml
# comment: MDB variable: ExternalData.GAIA.TotalSystemTransmissionExpressedAsQE
# url: http://euclid.esac.esa.int/epdb/db/SPV02/
# reference: Euclid Consortium Mission Performance Document, V 2.0
# xref: 513.0 nm
# filter: BP_GAIA
# xunit: nm
 300.00    0.0000000000
 300.25    0.0000000000
 300.50    0.0000000000
 300.75    0.0000000000
 301.00    0.0000000000
 301.25    0.0000000000
 301.50    0.0000000000
 301.75    0.0000000000
 302.00    0.0000000000
 302.25    0.0000000000
 302.50    0.0000000000
 302.75    0.0000000000
 303.00    0.0000000000
 303.25    0.0000000000
 303.50    0.0000000000
 303.75    0.0000000000
 304.00    0.0000000000
 304.25    0.0000000000
 304.50    0.0000000000
 304.75    0.0000000000
 305.00    0.0000000000
 305.25    0.0000000000
 305.50    0.0000000000
 305.75    0.0000000000
 306.00    0.0000000000
 306.25    0.0000000000
 306.50    0.0000000000
 306.75    0.0000000000
 307.00    0.0000000000
 307.25    0.0000000000
 307.50    0.0000000000
 307.75    0.0000000000
 308.00    0.0000000000
 308.25    0.0000000000
 308.50    0.0000000000
 308.75    0.0000000000
 309.00    0.0000000000
 309.25    0.0000000000
 309.50    0.0000000000
 309.75    0.0000000000
 310.00    0.0000000000
 310.25    0.0000000000
 310.50    0.0000000000
 310.75    0.0000000000
 311.00    0.0000000000
 311.25    0.0000000000
 311.50    0.0000000000
 311.75    0.0000000000
 312.00    0.0000000000
 312.25    0.0000000000
 312.50    0.0000000000
 312.75    0.0000000000
 313.00    0.0000000000
 313.25    0.0000000000
 313.50    0.0000000000
 313.75    0.0000000000
 314.00    0.0000000000
 314.25    0.0000000000
 314.50    0.0000000000
 314.75    0.0000000000
 315.00    0.0000000000
 315.25    0.0000000000
 315.50    0.0000000000
 315.75    0.0000000000
 316.00    0.0000000000
 316.25    0.0000000000
 316.50    0.0000000000
 316.75    0.0000000000
 317.00    0.0000000000
 317.25    0.0000000000
 317.50    0.0000000000
 317.75    0.0000000000
 318.00    0.0000000000
 318.25    0.0000000000
 318.50    0.0000000000
 318.75    0.0000000000
 319.00    0.0000000000
 319.25    0.0000000000
 319.50    0.0000000000
 319.75    0.0000000000
 320.00    0.0000000000
 320.25    0.0000000000
 320.50    0.0000000000
 320.75    0.0000000000
 321.00    0.0000000000
 321.25    0.0000000000
 321.50    0.0000000000
 321.75    0.0000000000
 322.00    0.0000000000
 322.25    0.0000000000
 322.50    0.0000000000
 322.75    0.0000000000
 323.00    0.0000000000
 323.25    0.0000000000
 323.50    0.0000000000
 323.75    0.0000000000
 324.00    0.0000000000
 324.25    0.0000000000
 324.50    0.0000000000
 324.75    0.0000000000
 325.00    0.0002172328
 325.25    0.0003917186
 325.50    0.0005840195
 325.75    0.0007941356
 326.00    0.0010220667
 326.25    0.0017121625
 326.50    0.0025177413
 326.75    0.0034388029
 327.00    0.0044753475
 327.25    0.0062820172
 327.50    0.0082813694
 327.75    0.0104734041
 328.00    0.0128581213
 328.25    0.0160358712
 328.50    0.0193653123
 328.75    0.0228464448
 329.00    0.0264792687
 329.25    0.0310486782
 329.50    0.0355997434
 329.75    0.0401324643
 330.00    0.0446468410
 330.25    0.0508848885
 330.50    0.0571191773
 330.75    0.0633497072
 331.00    0.0695764784
 331.25    0.0775133220
 331.50    0.0854655343
 331.75    0.0934331153
 332.00    0.1014160650
 332.25    0.1112402420
 332.50    0.1212696350
 332.75    0.1315042460
 333.00    0.1419440730
 333.25    0.1525647820
 333.50    0.1633774320
 333.75    0.1743820240
 334.00    0.1855785570
 334.25    0.1960802500
 334.50    0.2067164380
 334.75    0.2174871200
 335.00    0.2283922980
 335.25    0.2374829220
 335.50    0.2465690550
 335.75    0.2556506980
 336.00    0.2647278500
 336.25    0.2709627840
 336.50    0.2770002880
 336.75    0.2828403610
 337.00    0.2884830030
 337.25    0.2926738030
 337.50    0.2967401930
 337.75    0.3006821740
 338.00    0.3044997460
 338.25    0.3132974750
 338.50    0.3221975690
 338.75    0.3312000250
 339.00    0.3403048450
 339.25    0.3461424170
 339.50    0.3519609670
 339.75    0.3577604970
 340.00    0.3635410050
 340.25    0.3630427880
 340.50    0.3622840430
 340.75    0.3612647710
 341.00    0.3599849720
 341.25    0.3517613690
 341.50    0.3431784200
 341.75    0.3342361270
 342.00    0.3249344880
 342.25    0.3146723480
 342.50    0.3041569150
 342.75    0.2933881890
 343.00    0.2823661700
 343.25    0.2842892860
 343.50    0.2862070370
 343.75    0.2881194220
 344.00    0.2900264400
 344.25    0.3039574380
 344.50    0.3180600860
 344.75    0.3323343850
 345.00    0.3467803360
 345.25    0.3636659500
 345.50    0.3806596430
 345.75    0.3977614160
 346.00    0.4149712690
 346.25    0.4298245920
 346.50    0.4447439270
 346.75    0.4597292720
 347.00    0.4747806290
 347.25    0.4814380220
 347.50    0.4881146830
 347.75    0.4948106110
 348.00    0.5015258060
 348.25    0.5018606610
 348.50    0.5021955840
 348.75    0.5025305740
 349.00    0.5028656320
 349.25    0.5011977650
 349.50    0.4995321410
 349.75    0.4978687600
 350.00    0.4962076230
 350.25    0.4954937000
 350.50    0.4947770840
 350.75    0.4940577760
 351.00    0.4933357740
 351.25    0.4939778500
 351.50    0.4945972190
 351.75    0.4951938820
 352.00    0.4957678400
 352.25    0.4955254230
 352.50    0.4952571910
 352.75    0.4949631460
 353.00    0.4946432860
 353.25    0.4922291520
 353.50    0.4898163790
 353.75    0.4874049660
 354.00    0.4849949140
 354.25    0.4805462330
 354.50    0.4761144040
 354.75    0.4716994260
 355.00    0.4673012990
 355.25    0.4635853860
 355.50    0.4598748450
 355.75    0.4561696770
 356.00    0.4524698820
 356.25    0.4490787380
 356.50    0.4456742690
 356.75    0.4422564750
 357.00    0.4388253560
 357.25    0.4367593160
 357.50    0.4346711390
 357.75    0.4325608230
 358.00    0.4304283700
 358.25    0.4274716470
 358.50    0.4244801170
 358.75    0.4214537790
 359.00    0.4183926350
 359.25    0.4149669350
 359.50    0.4115245670
 359.75    0.4080655330
 360.00    0.4045898310
 360.25    0.4008183350
 360.50    0.3970451140
 360.75    0.3932701680
 361.00    0.3894934960
 361.25    0.3843523940
 361.50    0.3792086990
 361.75    0.3740624120
 362.00    0.3689135330
 362.25    0.3651056070
 362.50    0.3612964200
 362.75    0.3574859720
 363.00    0.3536742630
 363.25    0.3490424720
 363.50    0.3444098780
 363.75    0.3397764830
 364.00    0.3351422870
 364.25    0.3312208140
 364.50    0.3272936330
 364.75    0.3233607440
 365.00    0.3194221460
 365.25    0.3151515180
 365.50    0.3108754560
 365.75    0.3065939610
 366.00    0.3023070330
 366.25    0.2971816420
 366.50    0.2920518480
 366.75    0.2869176500
 367.00    0.2817790480
 367.25    0.2770555470
 367.50    0.2723399210
 367.75    0.2676321700
 368.00    0.2629322950
 368.25    0.2585502990
 368.50    0.2541732420
 368.75    0.2498011240
 369.00    0.2454339440
 369.25    0.2404060610
 369.50    0.2353865980
 369.75    0.2303755530
 370.00    0.2253729280
 370.25    0.2217371920
 370.50    0.2181075910
 370.75    0.2144841240
 371.00    0.2108667920
 371.25    0.2062334150
 371.50    0.2016099140
 371.75    0.1969962890
 372.00    0.1923925410
 372.25    0.1878414650
 372.50    0.1833040880
 372.75    0.1787804100
 373.00    0.1742704320
 373.25    0.1700959170
 373.50    0.1659380870
 373.75    0.1617969420
 374.00    0.1576724800
 374.25    0.1542500410
 374.50    0.1508395420
 374.75    0.1474409820
 375.00    0.1440543620
 375.25    0.1417877130
 375.50    0.1395211090
 375.75    0.1372545510
 376.00    0.1349880370
 376.25    0.1324488290
 376.50    0.1299050440
 376.75    0.1273566830
 377.00    0.1248037440
 377.25    0.1218300200
 377.50    0.1188553140
 377.75    0.1158796250
 378.00    0.1129029540
 378.25    0.1111538240
 378.50    0.1094088160
 378.75    0.1076679300
 379.00    0.1059311660
 379.25    0.1049553110
 379.50    0.1039815030
 379.75    0.1030097430
 380.00    0.1020400300
 380.25    0.1019332500
 380.50    0.1018261080
 380.75    0.1017186030
 381.00    0.1016107370
 381.25    0.1027338030
 381.50    0.1038614790
 381.75    0.1049937670
 382.00    0.1061306650
 382.25    0.1072768950
 382.50    0.1084274980
 382.75    0.1095824720
 383.00    0.1107418180
 383.25    0.1125032670
 383.50    0.1142670920
 383.75    0.1160332940
 384.00    0.1178018720
 384.25    0.1197111570
 384.50    0.1216110660
 384.75    0.1235016000
 385.00    0.1253827600
 385.25    0.1284673420
 385.50    0.1315336400
 385.75    0.1345816540
 386.00    0.1376113850
 386.25    0.1409699520
 386.50    0.1443261170
 386.75    0.1476798800
 387.00    0.1510312410
 387.25    0.1547714050
 387.50    0.1585261870
 387.75    0.1622955860
 388.00    0.1660796030
 388.25    0.1705906100
 388.50    0.1751203440
 388.75    0.1796688050
 389.00    0.1842359950
 389.25    0.1888756640
 389.50    0.1935170950
 389.75    0.1981602870
 390.00    0.2028052400
 390.25    0.2077659800
 390.50    0.2127293550
 390.75    0.2176953650
 391.00    0.2226640090
 391.25    0.2282676920
 391.50    0.2338867970
 391.75    0.2395213240
 392.00    0.2451712730
 392.25    0.2503347840
 392.50    0.2555197160
 392.75    0.2607260700
 393.00    0.2659538450
 393.25    0.2718533040
 393.50    0.2777677320
 393.75    0.2836971300
 394.00    0.2896414990
 394.25    0.2935783980
 394.50    0.2975003840
 394.75    0.3014074590
 395.00    0.3052996210
 395.25    0.3085493120
 395.50    0.3117650320
 395.75    0.3149467790
 396.00    0.3180945540
 396.25    0.3203682970
 396.50    0.3226122440
 396.75    0.3248263970
 397.00    0.3270107560
 397.25    0.3290724990
 397.50    0.3311135890
 397.75    0.3331340250
 398.00    0.3351338080
 398.25    0.3394668230
 398.50    0.3437978180
 398.75    0.3481267920
 399.00    0.3524537450
 399.25    0.3571091860
 399.50    0.3617836050
 399.75    0.3664770030
 400.00    0.3711893790
 400.25    0.3751422120
 400.50    0.3791149730
 400.75    0.3831076620
 401.00    0.3871202780
 401.25    0.3919469490
 401.50    0.3968015890
 401.75    0.4016841980
 402.00    0.4065947750
 402.25    0.4116873550
 402.50    0.4167986490
 402.75    0.4219286570
 403.00    0.4270773800
 403.25    0.4290852250
 403.50    0.4310936110
 403.75    0.4331025390
 404.00    0.4351120090
 404.25    0.4359543240
 404.50    0.4367911100
 404.75    0.4376223670
 405.00    0.4384480940
 405.25    0.4395012240
 405.50    0.4405410170
 405.75    0.4415674710
 406.00    0.4425805880
 406.25    0.4421146650
 406.50    0.4416419800
 406.75    0.4411625320
 407.00    0.4406763230
 407.25    0.4407835320
 407.50    0.4408849620
 407.75    0.4409806140
 408.00    0.4410704870
 408.25    0.4426378250
 408.50    0.4442039060
 408.75    0.4457687300
 409.00    0.4473322970
 409.25    0.4497694950
 409.50    0.4522117950
 409.75    0.4546591990
 410.00    0.4571117050
 410.25    0.4613158800
 410.50    0.4655349420
 410.75    0.4697688910
 411.00    0.4740177270
 411.25    0.4777715400
 411.50    0.4815365170
 411.75    0.4853126570
 412.00    0.4890999610
 412.25    0.4909812840
 412.50    0.4928658330
 412.75    0.4947536080
 413.00    0.4966446080
 413.25    0.4975896650
 413.50    0.4985355750
 413.75    0.4994823360
 414.00    0.5004299500
 414.25    0.5025116230
 414.50    0.5045968340
 414.75    0.5066855820
 415.00    0.5087778670
 415.25    0.5104175450
 415.50    0.5120588890
 415.75    0.5137018980
 416.00    0.5153465730
 416.25    0.5165753500
 416.50    0.5178044750
 416.75    0.5190339460
 417.00    0.5202637630
 417.25    0.5210347760
 417.50    0.5218016310
 417.75    0.5225643260
 418.00    0.5233228620
 418.25    0.5232840370
 418.50    0.5232425640
 418.75    0.5231984420
 419.00    0.5231516710
 419.25    0.5236609370
 419.50    0.5241683240
 419.75    0.5246738330
 420.00    0.5251774640
 420.25    0.5266526900
 420.50    0.5281286310
 420.75    0.5296052880
 421.00    0.5310826600
 421.25    0.5324060630
 421.50    0.5337311090
 421.75    0.5350578000
 422.00    0.5363861340
 422.25    0.5390337480
 422.50    0.5416862030
 422.75    0.5443434990
 423.00    0.5470056360
 423.25    0.5479439680
 423.50    0.5488830420
 423.75    0.5498228600
 424.00    0.5507634220
 424.25    0.5502492930
 424.50    0.5497353920
 424.75    0.5492217170
 425.00    0.5487082690
 425.25    0.5496997390
 425.50    0.5506909250
 425.75    0.5516818270
 426.00    0.5526724450
 426.25    0.5540687520
 426.50    0.5554625170
 426.75    0.5568537390
 427.00    0.5582424190
 427.25    0.5588740370
 427.50    0.5595041640
 427.75    0.5601327990
 428.00    0.5607599430
 428.25    0.5610047480
 428.50    0.5612492630
 428.75    0.5614934880
 429.00    0.5617374220
 429.25    0.5626114950
 429.50    0.5634853110
 429.75    0.5643588690
 430.00    0.5652321690
 430.25    0.5660523260
 430.50    0.5668730450
 430.75    0.5676943260
 431.00    0.5685161690
 431.25    0.5697485290
 431.50    0.5709821750
 431.75    0.5722171080
 432.00    0.5734533280
 432.25    0.5755851670
 432.50    0.5777206390
 432.75    0.5798597460
 433.00    0.5820024860
 433.25    0.5836976460
 433.50    0.5853944360
 433.75    0.5870928580
 434.00    0.5887929090
 434.25    0.5898850930
 434.50    0.5909744530
 434.75    0.5920609890
 435.00    0.5931447010
 435.25    0.5928459340
 435.50    0.5925426010
 435.75    0.5922347020
 436.00    0.5919222360
 436.25    0.5892183550
 436.50    0.5865190250
 436.75    0.5838242480
 437.00    0.5811340240
 437.25    0.5797516860
 437.50    0.5783674580
 437.75    0.5769813410
 438.00    0.5755933340
 438.25    0.5749982500
 438.50    0.5744010500
 438.75    0.5738017340
 439.00    0.5732003020
 439.25    0.5737895370
 439.50    0.5743771720
 439.75    0.5749632070
 440.00    0.5755476420
 440.25    0.5765757560
 440.50    0.5776041790
 440.75    0.5786329130
 441.00    0.5796619580
 441.25    0.5810822110
 441.50    0.5825035800
 441.75    0.5839260650
 442.00    0.5853496650
 442.25    0.5874682280
 442.50    0.5895901630
 442.75    0.5917154710
 443.00    0.5938441510
 443.25    0.5955675540
 443.50    0.5972934450
 443.75    0.5990218230
 444.00    0.6007526900
 444.25    0.6031167960
 444.50    0.6054855450
 444.75    0.6078589350
 445.00    0.6102369680
 445.25    0.6119007460
 445.50    0.6135660500
 445.75    0.6152328800
 446.00    0.6169012360
 446.25    0.6176242940
 446.50    0.6183466730
 446.75    0.6190683730
 447.00    0.6197893950
 447.25    0.6214437990
 447.50    0.6230999650
 447.75    0.6247578930
 448.00    0.6264175830
 448.25    0.6279860360
 448.50    0.6295545040
 448.75    0.6311229860
 449.00    0.6326914820
 449.25    0.6321275030
 449.50    0.6315637230
 449.75    0.6310001430
 450.00    0.6304367620
 450.25    0.6296639250
 450.50    0.6288915500
 450.75    0.6281196360
 451.00    0.6273481850
 451.25    0.6283452740
 451.50    0.6293391810
 451.75    0.6303299050
 452.00    0.6313174460
 452.25    0.6315564110
 452.50    0.6317942780
 452.75    0.6320310450
 453.00    0.6322667120
 453.25    0.6316607840
 453.50    0.6310549710
 453.75    0.6304492730
 454.00    0.6298436910
 454.25    0.6304956400
 454.50    0.6311472920
 454.75    0.6317986450
 455.00    0.6324497010
 455.25    0.6335635340
 455.50    0.6346782340
 455.75    0.6357938020
 456.00    0.6369102380
 456.25    0.6373279580
 456.50    0.6377452170
 456.75    0.6381620120
 457.00    0.6385783450
 457.25    0.6398941220
 457.50    0.6412108890
 457.75    0.6425286460
 458.00    0.6438473940
 458.25    0.6457320680
 458.50    0.6476193980
 458.75    0.6495093840
 459.00    0.6514020270
 459.25    0.6520852120
 459.50    0.6527687120
 459.75    0.6534525290
 460.00    0.6541366620
 460.25    0.6542694260
 460.50    0.6544013800
 460.75    0.6545325230
 461.00    0.6546628550
 461.25    0.6541824010
 461.50    0.6537013540
 461.75    0.6532197150
 462.00    0.6527374840
 462.25    0.6518486350
 462.50    0.6509602600
 462.75    0.6500723590
 463.00    0.6491849320
 463.25    0.6494239960
 463.50    0.6496628200
 463.75    0.6499014030
 464.00    0.6501397460
 464.25    0.6518111600
 464.50    0.6534839240
 464.75    0.6551580380
 465.00    0.6568335030
 465.25    0.6585573940
 465.50    0.6602835370
 465.75    0.6620119310
 466.00    0.6637425770
 466.25    0.6641903180
 466.50    0.6646359310
 466.75    0.6650794150
 467.00    0.6655207710
 467.25    0.6660149570
 467.50    0.6665076120
 467.75    0.6669987370
 468.00    0.6674883310
 468.25    0.6692042250
 468.50    0.6709221500
 468.75    0.6726421050
 469.00    0.6743640900
 469.25    0.6745852860
 469.50    0.6748064180
 469.75    0.6750274860
 470.00    0.6752484890
 470.25    0.6742756260
 470.50    0.6733033610
 470.75    0.6723316960
 471.00    0.6713606300
 471.25    0.6717743280
 471.50    0.6721851030
 471.75    0.6725929530
 472.00    0.6729978790
 472.25    0.6722599770
 472.50    0.6715204760
 472.75    0.6707793750
 473.00    0.6700366760
 473.25    0.6679769900
 473.50    0.6659198870
 473.75    0.6638653670
 474.00    0.6618134290
 474.25    0.6602033180
 474.50    0.6585938250
 474.75    0.6569849510
 475.00    0.6553766940
 475.25    0.6546270400
 475.50    0.6538743510
 475.75    0.6531186290
 476.00    0.6523598720
 476.25    0.6522966630
 476.50    0.6522301140
 476.75    0.6521602270
 477.00    0.6520870000
 477.25    0.6517455110
 477.50    0.6514036980
 477.75    0.6510615620
 478.00    0.6507191020
 478.25    0.6502621520
 478.50    0.6498047120
 478.75    0.6493467820
 479.00    0.6488883620
 479.25    0.6489660620
 479.50    0.6490423070
 479.75    0.6491170980
 480.00    0.6491904340
 480.25    0.6522734460
 480.50    0.6553637610
 480.75    0.6584613790
 481.00    0.6615663000
 481.25    0.6626870720
 481.50    0.6638037950
 481.75    0.6649164680
 482.00    0.6660250900
 482.25    0.6662770020
 482.50    0.6665211660
 482.75    0.6667575830
 483.00    0.6669862530
 483.25    0.6676602390
 483.50    0.6683329000
 483.75    0.6690042340
 484.00    0.6696742430
 484.25    0.6706254900
 484.50    0.6715774040
 484.75    0.6725299850
 485.00    0.6734832330
 485.25    0.6734836200
 485.50    0.6734832430
 485.75    0.6734821040
 486.00    0.6734802030
 486.25    0.6730637290
 486.50    0.6726459990
 486.75    0.6722270100
 487.00    0.6718067650
 487.25    0.6703077120
 487.50    0.6688096900
 487.75    0.6673126990
 488.00    0.6658167380
 488.25    0.6647871930
 488.50    0.6637582960
 488.75    0.6627300470
 489.00    0.6617024460
 489.25    0.6614947490
 489.50    0.6612870830
 489.75    0.6610794510
 490.00    0.6608718500
 490.25    0.6608657880
 490.50    0.6608592350
 490.75    0.6608521920
 491.00    0.6608446580
 491.25    0.6605523240
 491.50    0.6602573760
 491.75    0.6599598160
 492.00    0.6596596440
 492.25    0.6600774100
 492.50    0.6604946960
 492.75    0.6609115030
 493.00    0.6613278310
 493.25    0.6623694970
 493.50    0.6634119420
 493.75    0.6644551660
 494.00    0.6654991680
 494.25    0.6671782660
 494.50    0.6688586210
 494.75    0.6705402310
 495.00    0.6722230980
 495.25    0.6723134770
 495.50    0.6724038460
 495.75    0.6724942040
 496.00    0.6725845510
 496.25    0.6723858060
 496.50    0.6721869740
 496.75    0.6719880550
 497.00    0.6717890490
 497.25    0.6717213360
 497.50    0.6716533130
 497.75    0.6715849780
 498.00    0.6715163320
 498.25    0.6702603440
 498.50    0.6690028010
 498.75    0.6677437040
 499.00    0.6664830520
 499.25    0.6658849580
 499.50    0.6652861770
 499.75    0.6646867070
 500.00    0.6640865480
 500.25    0.6642371710
 500.50    0.6643878040
 500.75    0.6645384480
 501.00    0.6646891020
 501.25    0.6659582240
 501.50    0.6672261660
 501.75    0.6684929280
 502.00    0.6697585090
 502.25    0.6685462560
 502.50    0.6673350340
 502.75    0.6661248430
