# file: G_GAIA.Euclid.pb
# instrument: Euclid
# system: AB
# xtype: wavelength
# ytype: qe
# description: Full system QE
# comment: SPV2 values from SPV02 branch of the Euclid MDB
# comment: MDB file: EUC_MDB_MISSIONCONFIGURATION-SPV02_2018-06-16T140000.00Z_01.01.xml
# comment: MDB variable: ExternalData.GAIA.TotalSystemTransmissionExpressedAsQE
# url: http://euclid.esac.esa.int/epdb/db/SPV02/
# reference: Euclid Consortium Mission Performance Document, V 2.0
# xref: 642.0 nm
# filter: G_GAIA
# xunit: nm
 300.00    0.0000002492
 300.25    0.0000002450
 300.50    0.0000002409
 300.75    0.0000002367
 301.00    0.0000002326
 301.25    0.0000002278
 301.50    0.0000002231
 301.75    0.0000002183
 302.00    0.0000002136
 302.25    0.0000002082
 302.50    0.0000002029
 302.75    0.0000001975
 303.00    0.0000001922
 303.25    0.0000001866
 303.50    0.0000001811
 303.75    0.0000001756
 304.00    0.0000001701
 304.25    0.0000001642
 304.50    0.0000001584
 304.75    0.0000001525
 305.00    0.0000001467
 305.25    0.0000001406
 305.50    0.0000001346
 305.75    0.0000001285
 306.00    0.0000001225
 306.25    0.0000001171
 306.50    0.0000001117
 306.75    0.0000001064
 307.00    0.0000001010
 307.25    0.0000000961
 307.50    0.0000000911
 307.75    0.0000000862
 308.00    0.0000000813
 308.25    0.0000000770
 308.50    0.0000000727
 308.75    0.0000000684
 309.00    0.0000000641
 309.25    0.0000000610
 309.50    0.0000000579
 309.75    0.0000000548
 310.00    0.0000000516
 310.25    0.0000000493
 310.50    0.0000000469
 310.75    0.0000000445
 311.00    0.0000000422
 311.25    0.0000000405
 311.50    0.0000000388
 311.75    0.0000000370
 312.00    0.0000000353
 312.25    0.0000000340
 312.50    0.0000000326
 312.75    0.0000000313
 313.00    0.0000000299
 313.25    0.0000000288
 313.50    0.0000000276
 313.75    0.0000000265
 314.00    0.0000000253
 314.25    0.0000000244
 314.50    0.0000000235
 314.75    0.0000000226
 315.00    0.0000000217
 315.25    0.0000000207
 315.50    0.0000000198
 315.75    0.0000000189
 316.00    0.0000000180
 316.25    0.0000000175
 316.50    0.0000000170
 316.75    0.0000000164
 317.00    0.0000000159
 317.25    0.0000000159
 317.50    0.0000000160
 317.75    0.0000000160
 318.00    0.0000000160
 318.25    0.0000000163
 318.50    0.0000000166
 318.75    0.0000000169
 319.00    0.0000000172
 319.25    0.0000000194
 319.50    0.0000000216
 319.75    0.0000000238
 320.00    0.0000000261
 320.25    0.0000000430
 320.50    0.0000000599
 320.75    0.0000000769
 321.00    0.0000000938
 321.25    0.0000001843
 321.50    0.0000002748
 321.75    0.0000003652
 322.00    0.0000004557
 322.25    0.0000008993
 322.50    0.0000013428
 322.75    0.0000017864
 323.00    0.0000022300
 323.25    0.0000043880
 323.50    0.0000065459
 323.75    0.0000087039
 324.00    0.0000108619
 324.25    0.0000200867
 324.50    0.0000293115
 324.75    0.0000385363
 325.00    0.0000477612
 325.25    0.0000806290
 325.50    0.0001134968
 325.75    0.0001463646
 326.00    0.0001792324
 326.25    0.0002720020
 326.50    0.0003647716
 326.75    0.0004575412
 327.00    0.0005503108
 327.25    0.0007601224
 327.50    0.0009699340
 327.75    0.0011797456
 328.00    0.0013895571
 328.25    0.0017831005
 328.50    0.0021766439
 328.75    0.0025701873
 329.00    0.0029637307
 329.25    0.0035914286
 329.50    0.0042191265
 329.75    0.0048468244
 330.00    0.0054745223
 330.25    0.0063513249
 330.50    0.0072281276
 330.75    0.0081049302
 331.00    0.0089817328
 331.25    0.0100799913
 331.50    0.0111782497
 331.75    0.0122765082
 332.00    0.0133747666
 332.25    0.0146330349
 332.50    0.0158913032
 332.75    0.0171495716
 333.00    0.0184078399
 333.25    0.0197914370
 333.50    0.0211750341
 333.75    0.0225586312
 334.00    0.0239422284
 334.25    0.0253752696
 334.50    0.0268083107
 334.75    0.0282413519
 335.00    0.0296743931
 335.25    0.0310892771
 335.50    0.0325041612
 335.75    0.0339190453
 336.00    0.0353339293
 336.25    0.0367314954
 336.50    0.0381290614
 336.75    0.0395266274
 337.00    0.0409241935
 337.25    0.0422619394
 337.50    0.0435996853
 337.75    0.0449374312
 338.00    0.0462751771
 338.25    0.0475748131
 338.50    0.0488744492
 338.75    0.0501740853
 339.00    0.0514737213
 339.25    0.0527112583
 339.50    0.0539487952
 339.75    0.0551863322
 340.00    0.0564238691
 340.25    0.0576256341
 340.50    0.0588273992
 340.75    0.0600291642
 341.00    0.0612309292
 341.25    0.0623544255
 341.50    0.0634779218
 341.75    0.0646014180
 342.00    0.0657249143
 342.25    0.0667464817
 342.50    0.0677680491
 342.75    0.0687896166
 343.00    0.0698111840
 343.25    0.0707501351
 343.50    0.0716890861
 343.75    0.0726280372
 344.00    0.0735669882
 344.25    0.0744373209
 344.50    0.0753076535
 344.75    0.0761779862
 345.00    0.0770483188
 345.25    0.0777958945
 345.50    0.0785434702
 345.75    0.0792910459
 346.00    0.0800386215
 346.25    0.0807012048
 346.50    0.0813637880
 346.75    0.0820263712
 347.00    0.0826889544
 347.25    0.0832618651
 347.50    0.0838347758
 347.75    0.0844076865
 348.00    0.0849805972
 348.25    0.0854731001
 348.50    0.0859656031
 348.75    0.0864581060
 349.00    0.0869506089
 349.25    0.0873735765
 349.50    0.0877965440
 349.75    0.0882195116
 350.00    0.0886424791
 350.25    0.0889881800
 350.50    0.0893338809
 350.75    0.0896795818
 351.00    0.0900252827
 351.25    0.0902899762
 351.50    0.0905546698
 351.75    0.0908193634
 352.00    0.0910840569
 352.25    0.0912839534
 352.50    0.0914838499
 352.75    0.0916837464
 353.00    0.0918836428
 353.25    0.0920651481
 353.50    0.0922466533
 353.75    0.0924281585
 354.00    0.0926096637
 354.25    0.0927199934
 354.50    0.0928303231
 354.75    0.0929406529
 355.00    0.0930509826
 355.25    0.0931149818
 355.50    0.0931789810
 355.75    0.0932429802
 356.00    0.0933069794
 356.25    0.0933088882
 356.50    0.0933107970
 356.75    0.0933127058
 357.00    0.0933146145
 357.25    0.0933194001
 357.50    0.0933241857
 357.75    0.0933289713
 358.00    0.0933337569
 358.25    0.0932716380
 358.50    0.0932095191
 358.75    0.0931474001
 359.00    0.0930852812
 359.25    0.0930156894
 359.50    0.0929460975
 359.75    0.0928765057
 360.00    0.0928069139
 360.25    0.0927449499
 360.50    0.0926829859
 360.75    0.0926210219
 361.00    0.0925590579
 361.25    0.0924487770
 361.50    0.0923384961
 361.75    0.0922282152
 362.00    0.0921179344
 362.25    0.0920711752
 362.50    0.0920244161
 362.75    0.0919776570
 363.00    0.0919308978
 363.25    0.0918640293
 363.50    0.0917971608
 363.75    0.0917302922
 364.00    0.0916634237
 364.25    0.0916482627
 364.50    0.0916331017
 364.75    0.0916179407
 365.00    0.0916027797
 365.25    0.0916235054
 365.50    0.0916442310
 365.75    0.0916649566
 366.00    0.0916856822
 366.25    0.0917280427
 366.50    0.0917704032
 366.75    0.0918127637
 367.00    0.0918551243
 367.25    0.0919873620
 367.50    0.0921195998
 367.75    0.0922518375
 368.00    0.0923840753
 368.25    0.0925773598
 368.50    0.0927706443
 368.75    0.0929639288
 369.00    0.0931572133
 369.25    0.0933674219
 369.50    0.0935776306
 369.75    0.0937878393
 370.00    0.0939980480
 370.25    0.0943135053
 370.50    0.0946289626
 370.75    0.0949444199
 371.00    0.0952598771
 371.25    0.0955820125
 371.50    0.0959041478
 371.75    0.0962262831
 372.00    0.0965484184
 372.25    0.0969230386
 372.50    0.0972976587
 372.75    0.0976722789
 373.00    0.0980468990
 373.25    0.0984856757
 373.50    0.0989244524
 373.75    0.0993632290
 374.00    0.0998020057
 374.25    0.1003193420
 374.50    0.1008366790
 374.75    0.1013540160
 375.00    0.1018713530
 375.25    0.1024801500
 375.50    0.1030889470
 375.75    0.1036977450
 376.00    0.1043065420
 376.25    0.1049721560
 376.50    0.1056377710
 376.75    0.1063033850
 377.00    0.1069689990
 377.25    0.1077193400
 377.50    0.1084696800
 377.75    0.1092200210
 378.00    0.1099703610
 378.25    0.1109031820
 378.50    0.1118360030
 378.75    0.1127688230
 379.00    0.1137016440
 379.25    0.1147918140
 379.50    0.1158819840
 379.75    0.1169721540
 380.00    0.1180623240
 380.25    0.1193356950
 380.50    0.1206090670
 380.75    0.1218824380
 381.00    0.1231558090
 381.25    0.1246693100
 381.50    0.1261828110
 381.75    0.1276963110
 382.00    0.1292098120
 382.25    0.1309197340
 382.50    0.1326296550
 382.75    0.1343395760
 383.00    0.1360494970
 383.25    0.1380142760
 383.50    0.1399790550
 383.75    0.1419438340
 384.00    0.1439086130
 384.25    0.1461146080
 384.50    0.1483206030
 384.75    0.1505265970
 385.00    0.1527325920
 385.25    0.1552343250
 385.50    0.1577360580
 385.75    0.1602377910
 386.00    0.1627395240
 386.25    0.1654629680
 386.50    0.1681864120
 386.75    0.1709098560
 387.00    0.1736333000
 387.25    0.1765882990
 387.50    0.1795432990
 387.75    0.1824982990
 388.00    0.1854532980
 388.25    0.1886231730
 388.50    0.1917930480
 388.75    0.1949629230
 389.00    0.1981327970
 389.25    0.2014240130
 389.50    0.2047152290
 389.75    0.2080064450
 390.00    0.2112976610
 390.25    0.2146832370
 390.50    0.2180688120
 390.75    0.2214543870
 391.00    0.2248399620
 391.25    0.2283180330
 391.50    0.2317961030
 391.75    0.2352741740
 392.00    0.2387522450
 392.25    0.2421808150
 392.50    0.2456093860
 392.75    0.2490379560
 393.00    0.2524665270
 393.25    0.2559057680
 393.50    0.2593450100
 393.75    0.2627842510
 394.00    0.2662234920
 394.25    0.2695083550
 394.50    0.2727932170
 394.75    0.2760780800
 395.00    0.2793629430
 395.25    0.2825727180
 395.50    0.2857824930
 395.75    0.2889922680
 396.00    0.2922020430
 396.25    0.2952427510
 396.50    0.2982834590
 396.75    0.3013241670
 397.00    0.3043648750
 397.25    0.3072460020
 397.50    0.3101271300
 397.75    0.3130082570
 398.00    0.3158893850
 398.25    0.3187349670
 398.50    0.3215805490
 398.75    0.3244261310
 399.00    0.3272717130
 399.25    0.3299224870
 399.50    0.3325732600
 399.75    0.3352240340
 400.00    0.3378748070
 400.25    0.3403037130
 400.50    0.3427326190
 400.75    0.3451615240
 401.00    0.3475904300
 401.25    0.3499929280
 401.50    0.3523954270
 401.75    0.3547979250
 402.00    0.3572004240
 402.25    0.3596073270
 402.50    0.3620142300
 402.75    0.3644211320
 403.00    0.3668280350
 403.25    0.3689862560
 403.50    0.3711444770
 403.75    0.3733026980
 404.00    0.3754609180
 404.25    0.3775139730
 404.50    0.3795670270
 404.75    0.3816200820
 405.00    0.3836731360
 405.25    0.3857069970
 405.50    0.3877408590
 405.75    0.3897747200
 406.00    0.3918085810
 406.25    0.3936540920
 406.50    0.3954996040
 406.75    0.3973451150
 407.00    0.3991906270
 407.25    0.4009719580
 407.50    0.4027532900
 407.75    0.4045346210
 408.00    0.4063159520
 408.25    0.4080516010
 408.50    0.4097872490
 408.75    0.4115228970
 409.00    0.4132585460
 409.25    0.4149088360
 409.50    0.4165591270
 409.75    0.4182094170
 410.00    0.4198597080
 410.25    0.4215570610
 410.50    0.4232544140
 410.75    0.4249517660
 411.00    0.4266491190
 411.25    0.4282783560
 411.50    0.4299075930
 411.75    0.4315368300
 412.00    0.4331660670
 412.25    0.4346242820
 412.50    0.4360824970
 412.75    0.4375407120
 413.00    0.4389989270
 413.25    0.4403620700
 413.50    0.4417252130
 413.75    0.4430883560
 414.00    0.4444514990
 414.25    0.4458474210
 414.50    0.4472433430
 414.75    0.4486392660
 415.00    0.4500351880
 415.25    0.4513738240
 415.50    0.4527124600
 415.75    0.4540510960
 416.00    0.4553897320
 416.25    0.4566723560
 416.50    0.4579549810
 416.75    0.4592376050
 417.00    0.4605202290
 417.25    0.4617887710
 417.50    0.4630573130
 417.75    0.4643258550
 418.00    0.4655943970
 418.25    0.4667609420
 418.50    0.4679274880
 418.75    0.4690940340
 419.00    0.4702605790
 419.25    0.4713976710
 419.50    0.4725347630
 419.75    0.4736718550
 420.00    0.4748089470
 420.25    0.4759401450
 420.50    0.4770713430
 420.75    0.4782025420
 421.00    0.4793337400
 421.25    0.4803824650
 421.50    0.4814311910
 421.75    0.4824799160
 422.00    0.4835286420
 422.25    0.4846630310
 422.50    0.4857974210
 422.75    0.4869318100
 423.00    0.4880661990
 423.25    0.4890556180
 423.50    0.4900450380
 423.75    0.4910344570
 424.00    0.4920238760
 424.25    0.4929037220
 424.50    0.4937835680
 424.75    0.4946634130
 425.00    0.4955432590
 425.25    0.4965175630
 425.50    0.4974918680
 425.75    0.4984661720
 426.00    0.4994404760
 426.25    0.5004557370
 426.50    0.5014709970
 426.75    0.5024862580
 427.00    0.5035015190
 427.25    0.5044219250
 427.50    0.5053423300
 427.75    0.5062627360
 428.00    0.5071831420
 428.25    0.5080236610
 428.50    0.5088641790
 428.75    0.5097046980
 429.00    0.5105452160
 429.25    0.5114069830
 429.50    0.5122687500
 429.75    0.5131305160
 430.00    0.5139922830
 430.25    0.5147900620
 430.50    0.5155878410
 430.75    0.5163856200
 431.00    0.5171833990
 431.25    0.5179614270
 431.50    0.5187394550
 431.75    0.5195174830
 432.00    0.5202955100
 432.25    0.5211365980
 432.50    0.5219776860
 432.75    0.5228187740
 433.00    0.5236598620
 433.25    0.5244836240
 433.50    0.5253073870
 433.75    0.5261311490
 434.00    0.5269549110
 434.25    0.5277860830
 434.50    0.5286172550
 434.75    0.5294484280
 435.00    0.5302796000
 435.25    0.5310456470
 435.50    0.5318116950
 435.75    0.5325777430
 436.00    0.5333437900
 436.25    0.5339365580
 436.50    0.5345293260
 436.75    0.5351220930
 437.00    0.5357148610
 437.25    0.5363825040
 437.50    0.5370501470
 437.75    0.5377177900
 438.00    0.5383854330
 438.25    0.5390603990
 438.50    0.5397353660
 438.75    0.5404103320
 439.00    0.5410852990
 439.25    0.5417941910
 439.50    0.5425030840
 439.75    0.5432119760
 440.00    0.5439208690
 440.25    0.5446109530
 440.50    0.5453010370
 440.75    0.5459911210
 441.00    0.5466812040
 441.25    0.5473880190
 441.50    0.5480948340
 441.75    0.5488016490
 442.00    0.5495084640
 442.25    0.5502352400
 442.50    0.5509620170
 442.75    0.5516887940
 443.00    0.5524155700
 443.25    0.5530781540
 443.50    0.5537407380
 443.75    0.5544033210
 444.00    0.5550659050
 444.25    0.5557604770
 444.50    0.5564550490
 444.75    0.5571496220
 445.00    0.5578441940
 445.25    0.5584522240
 445.50    0.5590602550
 445.75    0.5596682850
 446.00    0.5602763160
 446.25    0.5608194630
 446.50    0.5613626110
 446.75    0.5619057580
 447.00    0.5624489060
 447.25    0.5631287720
 447.50    0.5638086390
 447.75    0.5644885060
 448.00    0.5651683730
 448.25    0.5658794650
 448.50    0.5665905570
 448.75    0.5673016490
 449.00    0.5680127400
 449.25    0.5685523220
 449.50    0.5690919040
 449.75    0.5696314860
 450.00    0.5701710680
 450.25    0.5706877420
 450.50    0.5712044160
 450.75    0.5717210910
 451.00    0.5722377650
 451.25    0.5729468550
 451.50    0.5736559460
 451.75    0.5743650360
 452.00    0.5750741260
 452.25    0.5756886690
 452.50    0.5763032130
 452.75    0.5769177560
 453.00    0.5775322990
 453.25    0.5780653650
 453.50    0.5785984300
 453.75    0.5791314950
 454.00    0.5796645610
 454.25    0.5802779860
 454.50    0.5808914120
 454.75    0.5815048380
 455.00    0.5821182630
 455.25    0.5827259280
 455.50    0.5833335930
 455.75    0.5839412580
 456.00    0.5845489230
 456.25    0.5850510360
 456.50    0.5855531490
 456.75    0.5860552610
 457.00    0.5865573740
 457.25    0.5871105450
 457.50    0.5876637160
 457.75    0.5882168870
 458.00    0.5887700570
 458.25    0.5893968960
 458.50    0.5900237350
 458.75    0.5906505740
 459.00    0.5912774130
 459.25    0.5918290290
 459.50    0.5923806450
 459.75    0.5929322610
 460.00    0.5934838780
 460.25    0.5940420640
 460.50    0.5946002510
 460.75    0.5951584380
 461.00    0.5957166250
 461.25    0.5962436730
 461.50    0.5967707210
 461.75    0.5972977690
 462.00    0.5978248180
 462.25    0.5982963570
 462.50    0.5987678960
 462.75    0.5992394350
 463.00    0.5997109740
 463.25    0.6002478740
 463.50    0.6007847750
 463.75    0.6013216760
 464.00    0.6018585770
 464.25    0.6024968990
 464.50    0.6031352210
 464.75    0.6037735440
 465.00    0.6044118660
 465.25    0.6049892530
 465.50    0.6055666410
 465.75    0.6061440280
 466.00    0.6067214150
 466.25    0.6071486230
 466.50    0.6075758310
 466.75    0.6080030380
 467.00    0.6084302460
 467.25    0.6088696020
 467.50    0.6093089590
 467.75    0.6097483150
 468.00    0.6101876710
 468.25    0.6108011070
 468.50    0.6114145420
 468.75    0.6120279780
 469.00    0.6126414140
 469.25    0.6131288950
 469.50    0.6136163760
 469.75    0.6141038580
 470.00    0.6145913390
 470.25    0.6150154580
 470.50    0.6154395770
 470.75    0.6158636960
 471.00    0.6162878150
 471.25    0.6169080730
 471.50    0.6175283310
 471.75    0.6181485880
 472.00    0.6187688460
 472.25    0.6193055640
 472.50    0.6198422810
 472.75    0.6203789990
 473.00    0.6209157170
 473.25    0.6213373050
 473.50    0.6217588930
 473.75    0.6221804810
 474.00    0.6226020690
 474.25    0.6230644950
 474.50    0.6235269210
 474.75    0.6239893460
 475.00    0.6244517720
 475.25    0.6249973180
 475.50    0.6255428640
 475.75    0.6260884100
 476.00    0.6266339570
 476.25    0.6272137580
 476.50    0.6277935600
 476.75    0.6283733620
 477.00    0.6289531640
 477.25    0.6294348690
 477.50    0.6299165750
 477.75    0.6303982800
 478.00    0.6308799860
 478.25    0.6312551800
 478.50    0.6316303740
 478.75    0.6320055680
 479.00    0.6323807630
 479.25    0.6327562820
 479.50    0.6331318010
 479.75    0.6335073210
 480.00    0.6338828400
 480.25    0.6345034270
 480.50    0.6351240140
 480.75    0.6357446000
 481.00    0.6363651870
 481.25    0.6367274790
 481.50    0.6370897710
 481.75    0.6374520630
 482.00    0.6378143550
 482.25    0.6380823480
 482.50    0.6383503410
 482.75    0.6386183340
 483.00    0.6388863280
 483.25    0.6392730220
 483.50    0.6396597170
 483.75    0.6400464120
 484.00    0.6404331070
 484.25    0.6409144900
 484.50    0.6413958730
 484.75    0.6418772560
 485.00    0.6423586390
 485.25    0.6428341720
 485.50    0.6433097040
 485.75    0.6437852370
 486.00    0.6442607700
 486.25    0.6447290230
 486.50    0.6451972760
 486.75    0.6456655290
 487.00    0.6461337830
 487.25    0.6465151910
 487.50    0.6468966000
 487.75    0.6472780090
 488.00    0.6476594180
 488.25    0.6480353030
 488.50    0.6484111890
 488.75    0.6487870740
 489.00    0.6491629600
 489.25    0.6495589110
 489.50    0.6499548620
 489.75    0.6503508130
 490.00    0.6507467640
 490.25    0.6511020450
 490.50    0.6514573250
 490.75    0.6518126060
 491.00    0.6521678860
 491.25    0.6524427320
 491.50    0.6527175790
 491.75    0.6529924250
 492.00    0.6532672720
 492.25    0.6536329570
 492.50    0.6539986420
 492.75    0.6543643280
 493.00    0.6547300130
 493.25    0.6551918050
 493.50    0.6556535960
 493.75    0.6561153880
 494.00    0.6565771800
 494.25    0.6571191750
 494.50    0.6576611700
 494.75    0.6582031650
 495.00    0.6587451600
 495.25    0.6591235540
 495.50    0.6595019480
 495.75    0.6598803420
 496.00    0.6602587360
 496.25    0.6605980960
 496.50    0.6609374550
 496.75    0.6612768150
 497.00    0.6616161740
 497.25    0.6619419090
 497.50    0.6622676440
 497.75    0.6625933790
 498.00    0.6629191130
 498.25    0.6631009530
 498.50    0.6632827920
 498.75    0.6634646320
 499.00    0.6636464710
 499.25    0.6639048890
 499.50    0.6641633070
 499.75    0.6644217250
 500.00    0.6646801430
 500.25    0.6650480410
 500.50    0.6654159390
 500.75    0.6657838360
 501.00    0.6661517340
 501.25    0.6666773130
 501.50    0.6672028910
 501.75    0.6677284690
 502.00    0.6682540480
 502.25    0.6685081530
 502.50    0.6687622590
 502.75    0.6690163640
