# file: RP_GAIA.Euclid.pb
# instrument: Euclid
# system: AB
# xtype: wavelength
# ytype: qe
# description: Full system QE
# comment: SPV2 values from SPV02 branch of the Euclid MDB
# comment: MDB file: EUC_MDB_MISSIONCONFIGURATION-SPV02_2018-06-16T140000.00Z_01.01.xml
# comment: MDB variable: ExternalData.GAIA.TotalSystemTransmissionExpressedAsQE
# url: http://euclid.esac.esa.int/epdb/db/SPV02/
# reference: Euclid Consortium Mission Performance Document, V 2.0
# xref: 780.0 nm
# filter: RP_GAIA
# xunit: nm
 300.00    0.0000000000
 300.25    0.0000000000
 300.50    0.0000000000
 300.75    0.0000000000
 301.00    0.0000000000
 301.25    0.0000000000
 301.50    0.0000000000
 301.75    0.0000000000
 302.00    0.0000000000
 302.25    0.0000000000
 302.50    0.0000000000
 302.75    0.0000000000
 303.00    0.0000000000
 303.25    0.0000000000
 303.50    0.0000000000
 303.75    0.0000000000
 304.00    0.0000000000
 304.25    0.0000000000
 304.50    0.0000000000
 304.75    0.0000000000
 305.00    0.0000000000
 305.25    0.0000000000
 305.50    0.0000000000
 305.75    0.0000000000
 306.00    0.0000000000
 306.25    0.0000000000
 306.50    0.0000000000
 306.75    0.0000000000
 307.00    0.0000000000
 307.25    0.0000000000
 307.50    0.0000000000
 307.75    0.0000000000
 308.00    0.0000000000
 308.25    0.0000000000
 308.50    0.0000000000
 308.75    0.0000000000
 309.00    0.0000000000
 309.25    0.0000000000
 309.50    0.0000000000
 309.75    0.0000000000
 310.00    0.0000000000
 310.25    0.0000000000
 310.50    0.0000000000
 310.75    0.0000000000
 311.00    0.0000000000
 311.25    0.0000000000
 311.50    0.0000000000
 311.75    0.0000000000
 312.00    0.0000000000
 312.25    0.0000000000
 312.50    0.0000000000
 312.75    0.0000000000
 313.00    0.0000000000
 313.25    0.0000000000
 313.50    0.0000000000
 313.75    0.0000000000
 314.00    0.0000000000
 314.25    0.0000000000
 314.50    0.0000000000
 314.75    0.0000000000
 315.00    0.0000000000
 315.25    0.0000000000
 315.50    0.0000000000
 315.75    0.0000000000
 316.00    0.0000000000
 316.25    0.0000000000
 316.50    0.0000000000
 316.75    0.0000000000
 317.00    0.0000000000
 317.25    0.0000000000
 317.50    0.0000000000
 317.75    0.0000000000
 318.00    0.0000000000
 318.25    0.0000000000
 318.50    0.0000000000
 318.75    0.0000000000
 319.00    0.0000000000
 319.25    0.0000000000
 319.50    0.0000000000
 319.75    0.0000000000
 320.00    0.0000000000
 320.25    0.0000000000
 320.50    0.0000000000
 320.75    0.0000000000
 321.00    0.0000000000
 321.25    0.0000000000
 321.50    0.0000000000
 321.75    0.0000000000
 322.00    0.0000000000
 322.25    0.0000000000
 322.50    0.0000000000
 322.75    0.0000000000
 323.00    0.0000000000
 323.25    0.0000000000
 323.50    0.0000000000
 323.75    0.0000000000
 324.00    0.0000000000
 324.25    0.0000000000
 324.50    0.0000000000
 324.75    0.0000000000
 325.00    0.0000000000
 325.25    0.0000000000
 325.50    0.0000000000
 325.75    0.0000000000
 326.00    0.0000000000
 326.25    0.0000000000
 326.50    0.0000000000
 326.75    0.0000000000
 327.00    0.0000000000
 327.25    0.0000000000
 327.50    0.0000000000
 327.75    0.0000000000
 328.00    0.0000000000
 328.25    0.0000000000
 328.50    0.0000000000
 328.75    0.0000000000
 329.00    0.0000000000
 329.25    0.0000000000
 329.50    0.0000000000
 329.75    0.0000000000
 330.00    0.0000000000
 330.25    0.0000000000
 330.50    0.0000000000
 330.75    0.0000000000
 331.00    0.0000000000
 331.25    0.0000000000
 331.50    0.0000000000
 331.75    0.0000000000
 332.00    0.0000000000
 332.25    0.0000000000
 332.50    0.0000000000
 332.75    0.0000000000
 333.00    0.0000000000
 333.25    0.0000000000
 333.50    0.0000000000
 333.75    0.0000000000
 334.00    0.0000000000
 334.25    0.0000000000
 334.50    0.0000000000
 334.75    0.0000000000
 335.00    0.0000000000
 335.25    0.0000000000
 335.50    0.0000000000
 335.75    0.0000000000
 336.00    0.0000000000
 336.25    0.0000000000
 336.50    0.0000000000
 336.75    0.0000000000
 337.00    0.0000000000
 337.25    0.0000000000
 337.50    0.0000000000
 337.75    0.0000000000
 338.00    0.0000000000
 338.25    0.0000000000
 338.50    0.0000000000
 338.75    0.0000000000
 339.00    0.0000000000
 339.25    0.0000000000
 339.50    0.0000000000
 339.75    0.0000000000
 340.00    0.0000000000
 340.25    0.0000000000
 340.50    0.0000000000
 340.75    0.0000000000
 341.00    0.0000000000
 341.25    0.0000000000
 341.50    0.0000000000
 341.75    0.0000000000
 342.00    0.0000000000
 342.25    0.0000000000
 342.50    0.0000000000
 342.75    0.0000000000
 343.00    0.0000000000
 343.25    0.0000000000
 343.50    0.0000000000
 343.75    0.0000000000
 344.00    0.0000000000
 344.25    0.0000000000
 344.50    0.0000000000
 344.75    0.0000000000
 345.00    0.0000000000
 345.25    0.0000000000
 345.50    0.0000000000
 345.75    0.0000000000
 346.00    0.0000000000
 346.25    0.0000000000
 346.50    0.0000000000
 346.75    0.0000000000
 347.00    0.0000000000
 347.25    0.0000000000
 347.50    0.0000000000
 347.75    0.0000000000
 348.00    0.0000000000
 348.25    0.0000000000
 348.50    0.0000000000
 348.75    0.0000000000
 349.00    0.0000000000
 349.25    0.0000000000
 349.50    0.0000000000
 349.75    0.0000000000
 350.00    0.0000000000
 350.25    0.0000000000
 350.50    0.0000000000
 350.75    0.0000000000
 351.00    0.0000000000
 351.25    0.0000000000
 351.50    0.0000000000
 351.75    0.0000000000
 352.00    0.0000000000
 352.25    0.0000000000
 352.50    0.0000000000
 352.75    0.0000000000
 353.00    0.0000000000
 353.25    0.0000000000
 353.50    0.0000000000
 353.75    0.0000000000
 354.00    0.0000000000
 354.25    0.0000000000
 354.50    0.0000000000
 354.75    0.0000000000
 355.00    0.0000000000
 355.25    0.0000000000
 355.50    0.0000000000
 355.75    0.0000000000
 356.00    0.0000000000
 356.25    0.0000000000
 356.50    0.0000000000
 356.75    0.0000000000
 357.00    0.0000000000
 357.25    0.0000000000
 357.50    0.0000000000
 357.75    0.0000000000
 358.00    0.0000000000
 358.25    0.0000000000
 358.50    0.0000000000
 358.75    0.0000000000
 359.00    0.0000000000
 359.25    0.0000000000
 359.50    0.0000000000
 359.75    0.0000000000
 360.00    0.0000000000
 360.25    0.0000000000
 360.50    0.0000000000
 360.75    0.0000000000
 361.00    0.0000000000
 361.25    0.0000000000
 361.50    0.0000000000
 361.75    0.0000000000
 362.00    0.0000000000
 362.25    0.0000000000
 362.50    0.0000000000
 362.75    0.0000000000
 363.00    0.0000000000
 363.25    0.0000000000
 363.50    0.0000000000
 363.75    0.0000000000
 364.00    0.0000000000
 364.25    0.0000000000
 364.50    0.0000000000
 364.75    0.0000000000
 365.00    0.0000000000
 365.25    0.0000000000
 365.50    0.0000000000
 365.75    0.0000000000
 366.00    0.0000000000
 366.25    0.0000000000
 366.50    0.0000000000
 366.75    0.0000000000
 367.00    0.0000000000
 367.25    0.0000000000
 367.50    0.0000000000
 367.75    0.0000000000
 368.00    0.0000000000
 368.25    0.0000000000
 368.50    0.0000000000
 368.75    0.0000000000
 369.00    0.0000000000
 369.25    0.0000000000
 369.50    0.0000000000
 369.75    0.0000000000
 370.00    0.0000000000
 370.25    0.0000000000
 370.50    0.0000000000
 370.75    0.0000000000
 371.00    0.0000000000
 371.25    0.0000000000
 371.50    0.0000000000
 371.75    0.0000000000
 372.00    0.0000000000
 372.25    0.0000000000
 372.50    0.0000000000
 372.75    0.0000000000
 373.00    0.0000000000
 373.25    0.0000000000
 373.50    0.0000000000
 373.75    0.0000000000
 374.00    0.0000000000
 374.25    0.0000000000
 374.50    0.0000000000
 374.75    0.0000000000
 375.00    0.0000000000
 375.25    0.0000000000
 375.50    0.0000000000
 375.75    0.0000000000
 376.00    0.0000000000
 376.25    0.0000000000
 376.50    0.0000000000
 376.75    0.0000000000
 377.00    0.0000000000
 377.25    0.0000000000
 377.50    0.0000000000
 377.75    0.0000000000
 378.00    0.0000000000
 378.25    0.0000000000
 378.50    0.0000000000
 378.75    0.0000000000
 379.00    0.0000000000
 379.25    0.0000000000
 379.50    0.0000000000
 379.75    0.0000000000
 380.00    0.0000000000
 380.25    0.0000000000
 380.50    0.0000000000
 380.75    0.0000000000
 381.00    0.0000000000
 381.25    0.0000000000
 381.50    0.0000000000
 381.75    0.0000000000
 382.00    0.0000000000
 382.25    0.0000000000
 382.50    0.0000000000
 382.75    0.0000000000
 383.00    0.0000000000
 383.25    0.0000000000
 383.50    0.0000000000
 383.75    0.0000000000
 384.00    0.0000000000
 384.25    0.0000000000
 384.50    0.0000000000
 384.75    0.0000000000
 385.00    0.0000000000
 385.25    0.0000000000
 385.50    0.0000000000
 385.75    0.0000000000
 386.00    0.0000000000
 386.25    0.0000000000
 386.50    0.0000000000
 386.75    0.0000000000
 387.00    0.0000000000
 387.25    0.0000000000
 387.50    0.0000000000
 387.75    0.0000000000
 388.00    0.0000000000
 388.25    0.0000000000
 388.50    0.0000000000
 388.75    0.0000000000
 389.00    0.0000000000
 389.25    0.0000000000
 389.50    0.0000000000
 389.75    0.0000000000
 390.00    0.0000000000
 390.25    0.0000000000
 390.50    0.0000000000
 390.75    0.0000000000
 391.00    0.0000000000
 391.25    0.0000000000
 391.50    0.0000000000
 391.75    0.0000000000
 392.00    0.0000000000
 392.25    0.0000000000
 392.50    0.0000000000
 392.75    0.0000000000
 393.00    0.0000000000
 393.25    0.0000000000
 393.50    0.0000000000
 393.75    0.0000000000
 394.00    0.0000000000
 394.25    0.0000000000
 394.50    0.0000000000
 394.75    0.0000000000
 395.00    0.0000000000
 395.25    0.0000000000
 395.50    0.0000000000
 395.75    0.0000000000
 396.00    0.0000000000
 396.25    0.0000000000
 396.50    0.0000000000
 396.75    0.0000000000
 397.00    0.0000000000
 397.25    0.0000000000
 397.50    0.0000000000
 397.75    0.0000000000
 398.00    0.0000000000
 398.25    0.0000000000
 398.50    0.0000000000
 398.75    0.0000000000
 399.00    0.0000000000
 399.25    0.0000000000
 399.50    0.0000000000
 399.75    0.0000000000
 400.00    0.0000000000
 400.25    0.0000000000
 400.50    0.0000000000
 400.75    0.0000000000
 401.00    0.0000000000
 401.25    0.0000000000
 401.50    0.0000000000
 401.75    0.0000000000
 402.00    0.0000000000
 402.25    0.0000000000
 402.50    0.0000000000
 402.75    0.0000000000
 403.00    0.0000000000
 403.25    0.0000000000
 403.50    0.0000000000
 403.75    0.0000000000
 404.00    0.0000000000
 404.25    0.0000000000
 404.50    0.0000000000
 404.75    0.0000000000
 405.00    0.0000000000
 405.25    0.0000000000
 405.50    0.0000000000
 405.75    0.0000000000
 406.00    0.0000000000
 406.25    0.0000000000
 406.50    0.0000000000
 406.75    0.0000000000
 407.00    0.0000000000
 407.25    0.0000000000
 407.50    0.0000000000
 407.75    0.0000000000
 408.00    0.0000000000
 408.25    0.0000000000
 408.50    0.0000000000
 408.75    0.0000000000
 409.00    0.0000000000
 409.25    0.0000000000
 409.50    0.0000000000
 409.75    0.0000000000
 410.00    0.0000000000
 410.25    0.0000000000
 410.50    0.0000000000
 410.75    0.0000000000
 411.00    0.0000000000
 411.25    0.0000000000
 411.50    0.0000000000
 411.75    0.0000000000
 412.00    0.0000000000
 412.25    0.0000000000
 412.50    0.0000000000
 412.75    0.0000000000
 413.00    0.0000000000
 413.25    0.0000000000
 413.50    0.0000000000
 413.75    0.0000000000
 414.00    0.0000000000
 414.25    0.0000000000
 414.50    0.0000000000
 414.75    0.0000000000
 415.00    0.0000000000
 415.25    0.0000000000
 415.50    0.0000000000
 415.75    0.0000000000
 416.00    0.0000000000
 416.25    0.0000000000
 416.50    0.0000000000
 416.75    0.0000000000
 417.00    0.0000000000
 417.25    0.0000000000
 417.50    0.0000000000
 417.75    0.0000000000
 418.00    0.0000000000
 418.25    0.0000000000
 418.50    0.0000000000
 418.75    0.0000000000
 419.00    0.0000000000
 419.25    0.0000000000
 419.50    0.0000000000
 419.75    0.0000000000
 420.00    0.0000000000
 420.25    0.0000000000
 420.50    0.0000000000
 420.75    0.0000000000
 421.00    0.0000000000
 421.25    0.0000000000
 421.50    0.0000000000
 421.75    0.0000000000
 422.00    0.0000000000
 422.25    0.0000000000
 422.50    0.0000000000
 422.75    0.0000000000
 423.00    0.0000000000
 423.25    0.0000000000
 423.50    0.0000000000
 423.75    0.0000000000
 424.00    0.0000000000
 424.25    0.0000000000
 424.50    0.0000000000
 424.75    0.0000000000
 425.00    0.0000000000
 425.25    0.0000000000
 425.50    0.0000000000
 425.75    0.0000000000
 426.00    0.0000000000
 426.25    0.0000000000
 426.50    0.0000000000
 426.75    0.0000000000
 427.00    0.0000000000
 427.25    0.0000000000
 427.50    0.0000000000
 427.75    0.0000000000
 428.00    0.0000000000
 428.25    0.0000000000
 428.50    0.0000000000
 428.75    0.0000000000
 429.00    0.0000000000
 429.25    0.0000000000
 429.50    0.0000000000
 429.75    0.0000000000
 430.00    0.0000000000
 430.25    0.0000000000
 430.50    0.0000000000
 430.75    0.0000000000
 431.00    0.0000000000
 431.25    0.0000000000
 431.50    0.0000000000
 431.75    0.0000000000
 432.00    0.0000000000
 432.25    0.0000000000
 432.50    0.0000000000
 432.75    0.0000000000
 433.00    0.0000000000
 433.25    0.0000000000
 433.50    0.0000000000
 433.75    0.0000000000
 434.00    0.0000000000
 434.25    0.0000000000
 434.50    0.0000000000
 434.75    0.0000000000
 435.00    0.0000000000
 435.25    0.0000000000
 435.50    0.0000000000
 435.75    0.0000000000
 436.00    0.0000000000
 436.25    0.0000000000
 436.50    0.0000000000
 436.75    0.0000000000
 437.00    0.0000000000
 437.25    0.0000000000
 437.50    0.0000000000
 437.75    0.0000000000
 438.00    0.0000000000
 438.25    0.0000000000
 438.50    0.0000000000
 438.75    0.0000000000
 439.00    0.0000000000
 439.25    0.0000000000
 439.50    0.0000000000
 439.75    0.0000000000
 440.00    0.0000000000
 440.25    0.0000000000
 440.50    0.0000000000
 440.75    0.0000000000
 441.00    0.0000000000
 441.25    0.0000000000
 441.50    0.0000000000
 441.75    0.0000000000
 442.00    0.0000000000
 442.25    0.0000000000
 442.50    0.0000000000
 442.75    0.0000000000
 443.00    0.0000000000
 443.25    0.0000000000
 443.50    0.0000000000
 443.75    0.0000000000
 444.00    0.0000000000
 444.25    0.0000000000
 444.50    0.0000000000
 444.75    0.0000000000
 445.00    0.0000000000
 445.25    0.0000000000
 445.50    0.0000000000
 445.75    0.0000000000
 446.00    0.0000000000
 446.25    0.0000000000
 446.50    0.0000000000
 446.75    0.0000000000
 447.00    0.0000000000
 447.25    0.0000000000
 447.50    0.0000000000
 447.75    0.0000000000
 448.00    0.0000000000
 448.25    0.0000000000
 448.50    0.0000000000
 448.75    0.0000000000
 449.00    0.0000000000
 449.25    0.0000000000
 449.50    0.0000000000
 449.75    0.0000000000
 450.00    0.0000000000
 450.25    0.0000000000
 450.50    0.0000000000
 450.75    0.0000000000
 451.00    0.0000000000
 451.25    0.0000000000
 451.50    0.0000000000
 451.75    0.0000000000
 452.00    0.0000000000
 452.25    0.0000000000
 452.50    0.0000000000
 452.75    0.0000000000
 453.00    0.0000000000
 453.25    0.0000000000
 453.50    0.0000000000
 453.75    0.0000000000
 454.00    0.0000000000
 454.25    0.0000000000
 454.50    0.0000000000
 454.75    0.0000000000
 455.00    0.0000000000
 455.25    0.0000000000
 455.50    0.0000000000
 455.75    0.0000000000
 456.00    0.0000000000
 456.25    0.0000000000
 456.50    0.0000000000
 456.75    0.0000000000
 457.00    0.0000000000
 457.25    0.0000000000
 457.50    0.0000000000
 457.75    0.0000000000
 458.00    0.0000000000
 458.25    0.0000000000
 458.50    0.0000000000
 458.75    0.0000000000
 459.00    0.0000000000
 459.25    0.0000000000
 459.50    0.0000000000
 459.75    0.0000000000
 460.00    0.0000000000
 460.25    0.0000000000
 460.50    0.0000000000
 460.75    0.0000000000
 461.00    0.0000000000
 461.25    0.0000000000
 461.50    0.0000000000
 461.75    0.0000000000
 462.00    0.0000000000
 462.25    0.0000000000
 462.50    0.0000000000
 462.75    0.0000000000
 463.00    0.0000000000
 463.25    0.0000000000
 463.50    0.0000000000
 463.75    0.0000000000
 464.00    0.0000000000
 464.25    0.0000000000
 464.50    0.0000000000
 464.75    0.0000000000
 465.00    0.0000000000
 465.25    0.0000000000
 465.50    0.0000000000
 465.75    0.0000000000
 466.00    0.0000000000
 466.25    0.0000000000
 466.50    0.0000000000
 466.75    0.0000000000
 467.00    0.0000000000
 467.25    0.0000000000
 467.50    0.0000000000
 467.75    0.0000000000
 468.00    0.0000000000
 468.25    0.0000000000
 468.50    0.0000000000
 468.75    0.0000000000
 469.00    0.0000000000
 469.25    0.0000000000
 469.50    0.0000000000
 469.75    0.0000000000
 470.00    0.0000000000
 470.25    0.0000000000
 470.50    0.0000000000
 470.75    0.0000000000
 471.00    0.0000000000
 471.25    0.0000000000
 471.50    0.0000000000
 471.75    0.0000000000
 472.00    0.0000000000
 472.25    0.0000000000
 472.50    0.0000000000
 472.75    0.0000000000
 473.00    0.0000000000
 473.25    0.0000000000
 473.50    0.0000000000
 473.75    0.0000000000
 474.00    0.0000000000
 474.25    0.0000000000
 474.50    0.0000000000
 474.75    0.0000000000
 475.00    0.0000000000
 475.25    0.0000000000
 475.50    0.0000000000
 475.75    0.0000000000
 476.00    0.0000000000
 476.25    0.0000000000
 476.50    0.0000000000
 476.75    0.0000000000
 477.00    0.0000000000
 477.25    0.0000000000
 477.50    0.0000000000
 477.75    0.0000000000
 478.00    0.0000000000
 478.25    0.0000000000
 478.50    0.0000000000
 478.75    0.0000000000
 479.00    0.0000000000
 479.25    0.0000000000
 479.50    0.0000000000
 479.75    0.0000000000
 480.00    0.0000000000
 480.25    0.0000000000
 480.50    0.0000000000
 480.75    0.0000000000
 481.00    0.0000000000
 481.25    0.0000000000
 481.50    0.0000000000
 481.75    0.0000000000
 482.00    0.0000000000
 482.25    0.0000000000
 482.50    0.0000000000
 482.75    0.0000000000
 483.00    0.0000000000
 483.25    0.0000000000
 483.50    0.0000000000
 483.75    0.0000000000
 484.00    0.0000000000
 484.25    0.0000000000
 484.50    0.0000000000
 484.75    0.0000000000
 485.00    0.0000000000
 485.25    0.0000000000
 485.50    0.0000000000
 485.75    0.0000000000
 486.00    0.0000000000
 486.25    0.0000000000
 486.50    0.0000000000
 486.75    0.0000000000
 487.00    0.0000000000
 487.25    0.0000000000
 487.50    0.0000000000
 487.75    0.0000000000
 488.00    0.0000000000
 488.25    0.0000000000
 488.50    0.0000000000
 488.75    0.0000000000
 489.00    0.0000000000
 489.25    0.0000000000
 489.50    0.0000000000
 489.75    0.0000000000
 490.00    0.0000000000
 490.25    0.0000000000
 490.50    0.0000000000
 490.75    0.0000000000
 491.00    0.0000000000
 491.25    0.0000000000
 491.50    0.0000000000
 491.75    0.0000000000
 492.00    0.0000000000
 492.25    0.0000000000
 492.50    0.0000000000
 492.75    0.0000000000
 493.00    0.0000000000
 493.25    0.0000000000
 493.50    0.0000000000
 493.75    0.0000000000
 494.00    0.0000000000
 494.25    0.0000000000
 494.50    0.0000000000
 494.75    0.0000000000
 495.00    0.0000000000
 495.25    0.0000000000
 495.50    0.0000000000
 495.75    0.0000000000
 496.00    0.0000000000
 496.25    0.0000000000
 496.50    0.0000000000
 496.75    0.0000000000
 497.00    0.0000000000
 497.25    0.0000000000
 497.50    0.0000000000
 497.75    0.0000000000
 498.00    0.0000000000
 498.25    0.0000000000
 498.50    0.0000000000
 498.75    0.0000000000
 499.00    0.0000000000
 499.25    0.0000000000
 499.50    0.0000000000
 499.75    0.0000000000
 500.00    0.0000000000
 500.25    0.0000000000
 500.50    0.0000000000
 500.75    0.0000000000
 501.00    0.0000000000
 501.25    0.0000000000
 501.50    0.0000000000
 501.75    0.0000000000
 502.00    0.0000000000
 502.25    0.0000000000
 502.50    0.0000000000
 502.75    0.0000000000
